File: Python Codes/EIS_Processing/0720_05_Plotting/0720_05_EIS_0.5MTFSI_Blocking_InsideGB_0hr_25C_0x_Thin_Sample_C01.mpt
EC-Lab ASCII FILE
Nb header lines : 62

Potentio Electrochemical Impedance Spectroscopy

Run on channel : 1 (SN 35512)
User :
CE vs. WE compliance from -10 V to 10 V
Electrode connection : standard
Ewe ctrl range : min = -5.00 V, max = 5.00 V
Safety Limits :
	Do not start on E overload
Acquisition started on : 07/20/2023 18:05:59
Technique started on : 07/20/2023 18:06:01
Saved on :
	File : 0720_05_EIS_0.5MTFSI_Blocking_InsideGB_0hr_25C_0x_Thin_Sample_C01.mpr
	Directory : C:\Users\CESL\Documents\EC-Lab\Data\PhD\Leifer\Results\Zn Ion GPE\2023\0720\
	Host : 10.110.196.171
Device : VSP (SN 17241724)
Address : USB
EC-Lab for windows v11.16 (software)
Internet server v11.16 (firmware)
Command interpretor v11.16 (firmware)
Electrode material : Au/Pd
Initial state :
Electrolyte : NaCl (0.2M)
Comments : Fe(CN)63-/Fe(CN)64- 5.10-3 M
Reference electrode : SCE Saturated Calomel Electrode (0.241 V)
Electrode surface area : 0.001 cm²
Characteristic mass : 0.001 g
Equivalent Weight : 0.000 g/eq.
Density : 0.000 g/cm3
Cycle Definition : Charge/Discharge alternance
Mode                Single sine
E (V)               0.0000
vs.                 Eoc
tE (h:m:s)          0:00:0.0000
record              0
dI                  0.000
unit dI             mA
dt (s)              0.000
fi                  1.000
unit fi             MHz
ff                  10.000
unit ff             mHz
Nd                  6
Points              per decade
spacing             Logarithmic
Va (mV)             10.0
pw                  0.10
Na                  2
corr                1
E range min (V)     -5.000
E range max (V)     5.000
I Range             Auto
Bandwidth           5
nc cycles           0
goto Ns'            0
nr cycles           0
inc. cycle          0

freq/Hz	Re(Z)/Ohm	-Im(Z)/Ohm	|Z|/Ohm	Phase(Z)/deg	time/s	<Ewe>/V	<I>/mA	Cs/µF	Cp/µF	cycle number	I Range	|Ewe|/V	|I|/A	Re(Y)/Ohm-1	Im(Y)/Ohm-1	|Y|/Ohm-1	Phase(Y)/deg
1.00002e+06	274.391	-2216.39	2233.32	82.9427	2.81909	-0.0089242	0.000446367	-7.18066e-05	-7.07227e-05	1	12	0.00246804	1.1051e-06	5.50136e-05	-0.000444372	0.000447765	-82.9427
675752	1371.03	-14.8934	1371.11	0.622378	3.0961	-0.00978572	0.000133364	-0.0158139	-1.86588e-06	1	12	0.00919845	6.70877e-06	0.000729294	-7.9223e-06	0.000729337	-0.622378
456640	869.509	60.0679	871.581	-3.95186	3.50408	-0.00980778	0.000152667	0.00580234	2.75596e-05	1	12	0.01094	1.25519e-05	0.00114461	7.90727e-05	0.00114734	3.95186
308574	731.689	40.4316	732.805	-3.16283	3.91308	-0.00991075	0.000107515	0.0127567	3.88333e-05	1	12	0.0108903	1.48611e-05	0.00136254	7.52911e-05	0.00136462	3.16283
208525	687.986	26.6499	688.502	-2.2183	4.32209	-0.00991247	3.39225e-05	0.0286395	4.29087e-05	1	12	0.010765	1.56355e-05	0.00145134	5.62192e-05	0.00145243	2.2183
140908	657.028	22.089	657.399	-1.92554	4.73108	-0.00989285	7.17074e-05	0.0511337	5.77301e-05	1	12	0.0106127	1.61434e-05	0.00152029	5.11114e-05	0.00152115	1.92554
95214.8	649.911	15.1849	650.088	-1.33845	5.14008	-0.00990134	0.000109679	0.110079	6.00597e-05	1	12	0.0105419	1.6216e-05	0.00153783	3.59309e-05	0.00153825	1.33845
64345.7	650.146	13.4426	650.285	-1.1845	5.54808	-0.00991363	0.000170291	0.184	7.8628e-05	1	12	0.010603	1.63052e-05	0.00153746	3.1789e-05	0.00153779	1.1845
43476.5	642.71	10.5918	642.797	-0.94414	5.95608	-0.00990522	0.00023538	0.345618	9.38394e-05	1	12	0.0104412	1.62433e-05	0.00155549	2.56342e-05	0.0015557	0.94414
29384.8	638.866	7.87169	638.914	-0.705926	6.3651	-0.00988825	7.14463e-05	0.688066	0.000104443	1	12	0.0103536	1.62049e-05	0.00156504	1.92834e-05	0.00156515	0.705926
19853.5	628.248	10.568	628.337	-0.963701	6.77408	-0.00988895	7.74143e-05	0.758562	0.00021458	1	12	0.0103125	1.64124e-05	0.00159128	2.67674e-05	0.0015915	0.963701
13418	633.754	15.0937	633.934	-1.36432	7.18209	-0.00990102	0.00012389	0.785847	0.000445493	1	12	0.0101551	1.60192e-05	0.001577	3.75584e-05	0.00157745	1.36432
9082.03	632.258	15.8933	632.458	-1.43997	7.47934	-0.00991952	7.3759e-05	1.10261	0.000696288	1	12	0.0109892	1.73753e-05	0.00158063	3.97331e-05	0.00158113	1.43997
6140.96	630.523	16.2753	630.733	-1.47861	8.07265	-0.00990753	4.20912e-05	1.59241	0.00106028	1	12	0.0101261	1.60545e-05	0.00158493	4.09107e-05	0.00158546	1.47861
4141.32	628.557	35.8038	629.576	-3.26015	8.53871	-0.00987269	0.000140358	1.07338	0.00347147	1	12	0.0103397	1.64233e-05	0.0015858	9.033e-05	0.00158837	3.26015
2797.31	633.43	40.6371	634.732	-3.67072	9.00493	-0.00987579	0.000170105	1.40009	0.00573879	1	12	0.0104472	1.64592e-05	0.00157224	0.000100865	0.00157547	3.67072
1890.6	629.132	56.82	631.693	-5.16066	9.46867	-0.00987503	0.000107571	1.48156	0.011987	1	12	0.0104773	1.65861e-05	0.00157663	0.000142393	0.00158305	5.16066
1287.12	627.37	87.8341	633.488	-7.96982	9.93519	-0.00986574	2.46721e-05	1.40779	0.0270638	1	12	0.0104901	1.65592e-05	0.00156331	0.00021887	0.00157856	7.96982
863.066	636.13	122.664	647.848	-10.9143	10.4022	-0.00987324	4.53922e-05	1.50335	0.0538946	1	12	0.010511	1.62245e-05	0.00151565	0.00029226	0.00154357	10.9143
583.692	641.937	168.367	663.649	-14.6965	10.8692	-0.00988228	0.000121242	1.61949	0.104235	1	12	0.0105033	1.58266e-05	0.00145752	0.000382278	0.00150682	14.6965
394.117	649.637	241.532	693.084	-20.3949	11.3362	-0.00988166	6.58513e-05	1.67194	0.203047	1	12	0.0104877	1.5132e-05	0.00135238	0.000502808	0.00144283	20.3949
266.449	668.85	350.265	755.014	-27.6402	11.7997	-0.00989444	0.000144274	1.70533	0.367022	1	12	0.0104953	1.39008e-05	0.00117333	0.00061445	0.00132448	27.6402
180.058	679.015	492.975	839.098	-35.9802	12.2647	-0.00987911	0.000120104	1.79302	0.618882	1	12	0.0104842	1.24946e-05	0.000964393	0.000700163	0.00119176	35.9802
121.595	710.717	710.453	1004.92	-44.9893	12.7251	-0.00987415	0.000148396	1.84233	0.920824	1	12	0.0104808	1.04295e-05	0.000703777	0.000703515	0.000995105	44.9893
82.2368	768.935	1004.35	1264.9	-52.562	13.1803	-0.00986954	5.95474e-05	1.92695	1.21486	1	12	0.0104683	8.27598e-06	0.000480593	0.000627727	0.000790576	52.562
55.5152	813.52	1433.85	1648.56	-60.4308	13.6419	-0.00987663	0.000215984	1.99942	1.51253	1	12	0.0104778	6.35572e-06	0.000299337	0.000527589	0.000606591	60.4308
37.5601	939.878	2049.74	2254.95	-65.3668	14.3977	-0.00989425	9.30053e-06	2.06726	1.70812	1	13	0.0104943	4.6539e-06	0.000184841	0.000403111	0.000443469	65.3668
25.3653	1092.32	2915.75	3113.64	-69.4627	14.8568	-0.00989889	1.77476e-05	2.15194	1.8871	1	13	0.010486	3.36776e-06	0.000112671	0.000300755	0.000321167	69.4627
17.1327	1352.33	4144.55	4359.6	-71.9289	15.2698	-0.0098977	8.63005e-06	2.24139	2.02572	1	13	0.0104727	2.40222e-06	7.11526e-05	0.000218064	0.000229379	71.9289
11.5912	1707.88	5857.37	6101.28	-73.7445	15.6793	-0.00989528	3.76e-07	2.34416	2.16048	1	13	0.0104628	1.71486e-06	4.58791e-05	0.000157348	0.0001639	73.7445
7.82815	2279.16	8274.17	8582.34	-74.5995	16.2613	-0.00989022	4.41162e-06	2.45718	2.28389	1	13	0.0104646	1.21932e-06	3.09431e-05	0.000112335	0.000116518	74.5995
5.29302	3113.99	11663.2	12071.8	-75.0511	17.5247	-0.00988835	2.38355e-06	2.57809	2.40654	1	14	0.0104664	8.67013e-07	2.13686e-05	8.00344e-05	8.2838e-05	75.0511
3.57551	4321.79	16301.3	16864.4	-75.1513	18.7393	-0.00988397	1.88696e-06	2.73062	2.55129	1	14	0.0104637	6.20461e-07	1.51957e-05	5.73163e-05	5.92964e-05	75.1513
2.41723	6224.23	22723.8	23560.8	-74.6819	20.5165	-0.00987975	2.19399e-06	2.89748	2.69527	1	14	0.0104722	4.44476e-07	1.12126e-05	4.09355e-05	4.24433e-05	74.6819
1.63271	9102.07	31520.6	32808.4	-73.8931	23.1274	-0.00988035	1.20993e-06	3.09256	2.85453	1	14	0.0104627	3.18902e-07	8.45608e-06	2.92835e-05	3.048e-05	73.8931
1.10206	13295.9	43509.6	45495.8	-73.0076	26.9764	-0.00988931	1.99681e-06	3.31917	3.03569	1	14	0.0104702	2.30135e-07	6.42356e-06	2.10205e-05	2.19801e-05	73.0076
0.745609	19448.8	59563.1	62658	-71.9169	32.6482	-0.00988849	1.81875e-06	3.5837	3.23842	1	14	0.0104631	1.66987e-07	4.95382e-06	1.51714e-05	1.59597e-05	71.9169
0.503902	28442.2	80617	85487.2	-70.5668	41.024	-0.00988084	1.515e-06	3.91785	3.48416	1	14	0.0104629	1.22391e-07	3.8919e-06	1.10312e-05	1.16977e-05	70.5668
0.340103	41243.4	108435	116014	-69.1757	53.4173	-0.00988735	2.30542e-06	4.31558	3.77016	1	14	0.0104616	9.01751e-08	3.06431e-06	8.05657e-06	8.61965e-06	69.1757
0.230213	58705.1	144859	156302	-67.9394	71.7096	-0.00987876	2.43149e-06	4.7725	4.09927	1	14	0.0104637	6.69452e-08	2.40296e-06	5.92946e-06	6.39787e-06	67.9394
0.155473	81758	193832	210369	-67.1301	98.7819	-0.00988508	2.31327e-06	5.28129	4.4836	1	14	0.0104637	4.97397e-08	1.84742e-06	4.37987e-06	4.75354e-06	67.1301
0.105049	116531	256320	281566	-65.552	138.831	-0.00988399	2.74371e-06	5.91079	4.89835	1	14	0.0104609	3.71527e-08	1.46988e-06	3.23312e-06	3.55156e-06	65.552
0.0710227	162330	341766	378358	-64.5935	198.052	-0.00988145	2.62878e-06	6.55683	5.34989	1	14	0.0104633	2.76545e-08	1.13394e-06	2.38738e-06	2.643e-06	64.5935
0.0479883	229784	452494	507495	-63.0778	285.683	-0.00988641	2.53678e-06	7.32945	5.82684	1	14	0.0104629	2.06168e-08	8.92184e-07	1.75691e-06	1.97046e-06	63.0778
0.0324439	322304	597717	679077	-61.6653	415.283	-0.00988486	1.82849e-06	8.20713	6.35835	1	14	0.0104635	1.54085e-08	6.98921e-07	1.29616e-06	1.47259e-06	61.6653
0.0219206	455827	785388	908082	-59.8698	607.084	-0.00988878	1.63372e-06	9.2445	6.91516	1	14	0.0104622	1.15212e-08	5.52777e-07	9.52432e-07	1.10122e-06	59.8698
0.0148076	646398	1.03652e+06	1.22155e+06	-58.0512	891.002	-0.00989704	2.04455e-06	10.3695	7.46595	1	14	0.0104623	8.56472e-09	4.33186e-07	6.94625e-07	8.18629e-07	58.0512