File: Python Codes/EIS_Processing/0720_05_Plotting/0720_05_EIS_0.5MTFSI_Blocking_InsideGB_0hr_40C_0x_Thin_Sample_t2_C01.mpt
EC-Lab ASCII FILE
Nb header lines : 62

Potentio Electrochemical Impedance Spectroscopy

Run on channel : 1 (SN 35512)
User :
CE vs. WE compliance from -10 V to 10 V
Electrode connection : standard
Ewe ctrl range : min = -5.00 V, max = 5.00 V
Safety Limits :
	Do not start on E overload
Acquisition started on : 07/20/2023 18:46:40
Technique started on : 07/20/2023 18:46:42
Saved on :
	File : 0720_05_EIS_0.5MTFSI_Blocking_InsideGB_0hr_40C_0x_Thin_Sample_t2_C01.mpr
	Directory : C:\Users\CESL\Documents\EC-Lab\Data\PhD\Leifer\Results\Zn Ion GPE\2023\0720\
	Host : 10.110.196.171
Device : VSP (SN 17241724)
Address : USB
EC-Lab for windows v11.16 (software)
Internet server v11.16 (firmware)
Command interpretor v11.16 (firmware)
Electrode material : Au/Pd
Initial state :
Electrolyte : NaCl (0.2M)
Comments : Fe(CN)63-/Fe(CN)64- 5.10-3 M
Reference electrode : SCE Saturated Calomel Electrode (0.241 V)
Electrode surface area : 0.001 cm²
Characteristic mass : 0.001 g
Equivalent Weight : 0.000 g/eq.
Density : 0.000 g/cm3
Cycle Definition : Charge/Discharge alternance
Mode                Single sine
E (V)               0.0000
vs.                 Eoc
tE (h:m:s)          0:00:0.0000
record              0
dI                  0.000
unit dI             mA
dt (s)              0.000
fi                  1.000
unit fi             MHz
ff                  10.000
unit ff             mHz
Nd                  6
Points              per decade
spacing             Logarithmic
Va (mV)             10.0
pw                  0.10
Na                  2
corr                1
E range min (V)     -5.000
E range max (V)     5.000
I Range             Auto
Bandwidth           5
nc cycles           0
goto Ns'            0
nr cycles           0
inc. cycle          0

freq/Hz	Re(Z)/Ohm	-Im(Z)/Ohm	|Z|/Ohm	Phase(Z)/deg	time/s	<Ewe>/V	<I>/mA	Cs/µF	Cp/µF	cycle number	I Range	|Ewe|/V	|I|/A	Re(Y)/Ohm-1	Im(Y)/Ohm-1	|Y|/Ohm-1	Phase(Y)/deg
1.00002e+06	-258.018	-39.7722	261.065	171.237	2.48708	-0.0276736	0.00207068	-0.00400158	-9.2874e-05	1	11	0.00100175	3.83715e-06	-0.00378575	-0.000583556	0.00383046	-171.237
675752	186.43	-16.4168	187.152	5.03242	2.89608	-0.0283792	0.000877877	-0.0143464	-0.000110391	1	11	0.0047959	2.56257e-05	0.00532267	-0.000468707	0.00534326	-5.03242
456640	99.923	-6.01059	100.104	3.44232	3.30509	-0.0283664	0.000859981	-0.0579867	-0.000209056	1	11	0.0102225	0.000102119	0.00997163	-0.000599816	0.00998965	-3.44232
308574	82.2753	-3.2845	82.3409	2.28608	3.84608	-0.0284905	0.00107755	-0.157033	-0.000249861	1	11	0.0100976	0.000122631	0.012135	-0.000484438	0.0121446	-2.28608
208525	75.9021	-1.55907	75.9181	1.17672	4.25508	-0.028506	0.00112863	-0.489547	-0.000206461	1	11	0.0108683	0.000143158	0.0131693	-0.000270506	0.0131721	-1.17672
140908	73.2354	-0.416529	73.2365	0.325868	4.66408	-0.0285132	0.00107848	-2.71168	-8.77149e-05	1	11	0.0107962	0.000147415	0.0136542	-7.76586e-05	0.0136544	-0.325868
95214.8	72.1866	0.635002	72.1894	-0.504	5.0731	-0.0285022	0.000981162	2.63233	0.000203678	1	11	0.0106215	0.000147134	0.0138519	0.000121851	0.0138525	0.504
64345.7	71.6818	1.62683	71.7002	-1.30012	5.48209	-0.0284981	0.00110197	1.5204	0.000782714	1	11	0.0105334	0.000146909	0.0139434	0.000316448	0.013947	1.30012
43476.5	71.7703	2.75113	71.823	-2.19521	5.89108	-0.0284799	0.00110328	1.33062	0.00195231	1	11	0.0104589	0.000145621	0.0139129	0.000533314	0.0139231	2.19521
29384.8	71.8744	4.30396	72.0031	-3.42688	6.30009	-0.0285176	0.000988247	1.25843	0.00449638	1	11	0.0104048	0.000144504	0.0138634	0.000830167	0.0138883	3.42688
19853.5	72.252	6.13104	72.5116	-4.85029	6.7091	-0.0284988	0.00111726	1.30752	0.00934764	1	11	0.0102979	0.000142017	0.0137415	0.00116605	0.0137909	4.85029
13418	72.7054	8.78124	73.2338	-6.88673	7.11808	-0.0284924	0.00104418	1.35076	0.0194208	1	11	0.0100801	0.000137643	0.0135564	0.00163732	0.0136549	6.88673
9082.03	73.3126	12.4798	74.3672	-9.66072	7.41535	-0.0285121	0.000927656	1.4042	0.0395442	1	11	0.0107752	0.000144891	0.0132561	0.00225655	0.0134468	9.66072
6140.96	74.1403	17.6851	76.2204	-13.4164	8.00862	-0.0285053	0.000831829	1.46547	0.078895	1	11	0.0101271	0.000132867	0.0127618	0.00304414	0.0131198	13.4164
4141.32	75.4175	25.1436	79.4984	-18.438	8.47469	-0.0284856	0.00129996	1.52846	0.152895	1	11	0.0102555	0.000129002	0.0119331	0.00397842	0.0125789	18.438
2797.31	77.218	35.5493	85.0081	-24.7202	8.94094	-0.0284733	0.00115249	1.60047	0.279891	1	11	0.0102788	0.000120915	0.0106856	0.00491938	0.0117636	24.7202
1890.6	79.4946	50.3134	94.0788	-32.3304	9.40569	-0.0284793	0.00117934	1.67315	0.478541	1	11	0.0102574	0.000109029	0.0089816	0.0056846	0.0106294	32.3304
1287.12	82.8998	70.9592	109.122	-40.5623	9.87221	-0.0284829	0.00110085	1.74258	0.736864	1	11	0.0102183	9.36414e-05	0.00696194	0.00595916	0.00916407	40.5623
863.066	87.1319	101.684	133.909	-49.407	10.3392	-0.0284807	0.00110719	1.81353	1.04571	1	11	0.0101642	7.59038e-05	0.00485914	0.00567066	0.00746777	49.407
583.692	93.3964	144.794	172.302	-57.1767	10.8062	-0.0284735	0.00121159	1.88316	1.32985	1	11	0.0101369	5.88323e-05	0.00314592	0.00487716	0.00580375	57.1767
394.117	102.188	206.825	230.693	-63.7069	11.2732	-0.0284782	0.00114075	1.9525	1.56939	1	11	0.0101105	4.38267e-05	0.00192014	0.0038863	0.00433477	63.7069
266.449	115.147	294.608	316.311	-68.652	11.9887	-0.0284972	7.3405e-05	2.0275	1.75882	1	12	0.0102196	3.23087e-05	0.00115087	0.00294453	0.00316145	68.652
180.058	133.568	424.842	445.344	-72.5472	12.4537	-0.0284958	0.00025638	2.08056	1.89341	1	12	0.0101609	2.28159e-05	0.000673458	0.00214208	0.00224546	72.5472
121.595	159	602.132	622.771	-75.208	12.9141	-0.0284995	3.78405e-06	2.17376	2.03207	1	12	0.0101197	1.62494e-05	0.000409958	0.00155251	0.00160573	75.208
82.2368	189.419	859.362	879.991	-77.5697	13.3693	-0.0284949	9.41619e-05	2.25205	2.1477	1	12	0.010096	1.14729e-05	0.000244607	0.00110974	0.00113638	77.5697
55.5152	266.021	1211.54	1240.4	-77.6159	13.8309	-0.0285004	8.00997e-05	2.36631	2.25747	1	12	0.0100836	8.1293e-06	0.000172899	0.000787433	0.000806191	77.6159
37.5601	332.849	1756.81	1788.06	-79.2718	14.5867	-0.0284937	-3.14949e-06	2.41196	2.32838	1	13	0.0101208	5.66022e-06	0.000104108	0.00054949	0.000559265	79.2718
25.3653	450.046	2503.6	2543.73	-79.8094	15.0459	-0.0285005	1.15766e-05	2.5062	2.42775	1	13	0.0100933	3.96792e-06	6.95529e-05	0.000386922	0.000393123	79.8094
17.1327	641.382	3604.29	3660.91	-79.9099	15.4609	-0.0285053	1.8555e-05	2.57736	2.49825	1	13	0.0100891	2.7559e-06	4.78561e-05	0.000268931	0.000273156	79.9099
11.5912	892.148	5137.54	5214.42	-80.1487	15.8703	-0.0285108	-1.31545e-06	2.67261	2.59437	1	13	0.010086	1.93425e-06	3.28114e-05	0.000188948	0.000191776	80.1487
7.82815	1313.31	7216.06	7334.59	-79.6852	16.4523	-0.0284932	-1.14111e-06	2.81748	2.72715	1	13	0.0100835	1.37479e-06	2.44126e-05	0.000134137	0.00013634	79.6852
5.29302	1950.74	10305	10488	-79.2807	17.7157	-0.0284949	2.17214e-06	2.91789	2.81694	1	14	0.0100892	9.61973e-07	1.77343e-05	9.36831e-05	9.53469e-05	79.2807
3.57551	2945.3	14510.8	14806.7	-78.5264	18.9304	-0.028487	5.59092e-08	3.06754	2.94617	1	14	0.0100866	6.81216e-07	1.34343e-05	6.61874e-05	6.75371e-05	78.5264
2.41723	4457.02	20379	20860.7	-77.6633	20.7075	-0.0284827	2.77324e-06	3.23087	3.08338	1	14	0.0100852	4.83454e-07	1.02421e-05	4.68301e-05	4.79371e-05	77.6633
1.63271	6655.53	28522.7	29288.9	-76.8655	23.3184	-0.0284837	1.91482e-06	3.4176	3.24113	1	14	0.0100849	3.44325e-07	7.75847e-06	3.32494e-05	3.41426e-05	76.8655
1.10206	10414.5	39609.5	40955.8	-75.2687	27.1674	-0.0284876	2.51229e-06	3.64599	3.41024	1	14	0.0100806	2.46134e-07	6.20879e-06	2.3614e-05	2.44166e-05	75.2687
0.745609	15160	54741.8	56802.2	-74.5207	32.8392	-0.0284861	2.07659e-06	3.89933	3.62158	1	14	0.0100804	1.77464e-07	4.69861e-06	1.69664e-05	1.7605e-05	74.5207
0.503902	23099.5	75178.5	78647.3	-72.9198	41.215	-0.0284917	2.14515e-06	4.20127	3.83884	1	14	0.01008	1.28167e-07	3.73453e-06	1.21542e-05	1.2715e-05	72.9198
0.340103	33307.1	102185	107476	-71.9466	53.6085	-0.0284897	1.89783e-06	4.57956	4.13974	1	14	0.0100812	9.37997e-08	2.88345e-06	8.84632e-06	9.30439e-06	71.9466
0.230213	47763.4	137511	145570	-70.8457	71.9017	-0.0284903	2.0016e-06	5.02753	4.48627	1	14	0.0100829	6.9265e-08	2.254e-06	6.48925e-06	6.86956e-06	70.8457
0.155473	67787.1	186237	198190	-69.9993	98.973	-0.0284897	1.9068e-06	5.49669	4.85365	1	14	0.0100818	5.08695e-08	1.72578e-06	4.74136e-06	5.04567e-06	69.9993
0.105049	96084.9	251758	269471	-69.1104	139.022	-0.0284914	2.08034e-06	6.01789	5.25277	1	14	0.0100798	3.74059e-08	1.32322e-06	3.46705e-06	3.71098e-06	69.1104
0.0710227	138831	337527	364964	-67.6417	198.243	-0.0284944	2.35922e-06	6.63918	5.67847	1	14	0.0100811	2.76222e-08	1.04229e-06	2.53401e-06	2.74e-06	67.6417
0.0479883	197956	452252	493679	-66.3604	285.874	-0.0284907	2.15384e-06	7.33338	6.15427	1	14	0.010081	2.04202e-08	8.12233e-07	1.85563e-06	2.02561e-06	66.3604
0.0324439	287382	600469	665697	-64.4244	415.474	-0.0284907	1.80817e-06	8.16951	6.64699	1	14	0.0100825	1.51457e-08	6.48497e-07	1.355e-06	1.50219e-06	64.4244
0.0219206	413236	789124	890776	-62.3606	607.275	-0.0284895	1.94461e-06	9.20074	7.22066	1	14	0.0100826	1.13189e-08	5.20789e-07	9.94509e-07	1.12262e-06	62.3606
0.0148076	584915	1.02381e+06	1.17911e+06	-60.2601	891.193	-0.0284853	1.96381e-06	10.4983	7.91485	1	14	0.0100809	8.54956e-09	4.20709e-07	7.3639e-07	8.48096e-07	60.2601
0.0100006	838822	1.29952e+06	1.54673e+06	-57.1584	1311.57	-0.0284813	2.50605e-06	12.2464	8.64462	1	14	0.0100803	6.51715e-09	3.50622e-07	5.43192e-07	6.46524e-07	57.1584