File: Python Codes/EIS_Processing/0720_05_Plotting/0720_05_EIS_0.5MTFSI_Blocking_InsideGB_0hr_60C_0x_Thin_Sample_t2_C01.mpt
EC-Lab ASCII FILE
Nb header lines : 62

Potentio Electrochemical Impedance Spectroscopy

Run on channel : 1 (SN 35512)
User :
CE vs. WE compliance from -10 V to 10 V
Electrode connection : standard
Ewe ctrl range : min = -5.00 V, max = 5.00 V
Safety Limits :
	Do not start on E overload
Acquisition started on : 07/20/2023 19:23:25
Technique started on : 07/20/2023 19:23:27
Saved on :
	File : 0720_05_EIS_0.5MTFSI_Blocking_InsideGB_0hr_60C_0x_Thin_Sample_t2_C01.mpr
	Directory : C:\Users\CESL\Documents\EC-Lab\Data\PhD\Leifer\Results\Zn Ion GPE\2023\0720\
	Host : 10.110.196.171
Device : VSP (SN 17241724)
Address : USB
EC-Lab for windows v11.16 (software)
Internet server v11.16 (firmware)
Command interpretor v11.16 (firmware)
Electrode material : Au/Pd
Initial state :
Electrolyte : NaCl (0.2M)
Comments : Fe(CN)63-/Fe(CN)64- 5.10-3 M
Reference electrode : SCE Saturated Calomel Electrode (0.241 V)
Electrode surface area : 0.001 cm²
Characteristic mass : 0.001 g
Equivalent Weight : 0.000 g/eq.
Density : 0.000 g/cm3
Cycle Definition : Charge/Discharge alternance
Mode                Single sine
E (V)               0.0000
vs.                 Eoc
tE (h:m:s)          0:00:0.0000
record              0
dI                  0.000
unit dI             mA
dt (s)              0.000
fi                  1.000
unit fi             MHz
ff                  10.000
unit ff             mHz
Nd                  6
Points              per decade
spacing             Logarithmic
Va (mV)             10.0
pw                  0.10
Na                  2
corr                1
E range min (V)     -5.000
E range max (V)     5.000
I Range             Auto
Bandwidth           5
nc cycles           0
goto Ns'            0
nr cycles           0
inc. cycle          0

freq/Hz	Re(Z)/Ohm	-Im(Z)/Ohm	|Z|/Ohm	Phase(Z)/deg	time/s	<Ewe>/V	<I>/mA	Cs/µF	Cp/µF	cycle number	I Range	|Ewe|/V	|I|/A	Re(Y)/Ohm-1	Im(Y)/Ohm-1	|Y|/Ohm-1	Phase(Y)/deg
1.00002e+06	-76.7614	18.7764	79.0245	-166.255	2.63909	-0.0413752	0.000705983	0.00847619	0.00047852	1	11	0.000321283	4.06561e-06	-0.0122919	0.00300669	0.0126543	166.255
675752	50.3379	-11.9801	51.7439	13.387	3.04808	-0.0419719	0.000229088	-0.0196595	-0.00105384	1	11	0.00160656	3.10484e-05	0.0188008	-0.00447448	0.019326	-13.387
456640	27.7591	-3.80894	28.0192	7.81301	3.75108	-0.0418508	0.0109195	-0.0915043	-0.00169098	1	10	0.00880916	0.000314397	0.0353585	-0.00485169	0.0356898	-7.81301
308574	22.9932	-1.67179	23.0539	4.15855	4.29209	-0.0420928	0.0112532	-0.308517	-0.00162239	1	10	0.0101429	0.000439967	0.0432625	-0.00314554	0.0433767	-4.15855
208525	21.316	-0.66417	21.3263	1.78467	4.83308	-0.0420738	0.0107255	-1.14916	-0.00111458	1	10	0.0101454	0.000475721	0.0468677	-0.00146032	0.0468904	-1.78467
140908	20.6668	0.0761547	20.667	-0.211127	5.37308	-0.0420761	0.0116859	14.8316	0.000201385	1	10	0.0101064	0.000489014	0.0483861	0.000178297	0.0483864	0.211127
95214.8	20.4653	0.757533	20.4793	-2.11986	5.78209	-0.0420733	0.0104458	2.20655	0.00301915	1	10	0.0107096	0.000522948	0.0487963	0.00180622	0.0488297	2.11986
64345.7	20.4293	1.46946	20.4821	-4.11414	6.19008	-0.0420666	0.0109903	1.68323	0.00866383	1	10	0.0105347	0.00051434	0.0486974	0.00350275	0.0488232	4.11414
43476.5	20.5176	2.30639	20.6469	-6.41371	6.59908	-0.0420646	0.0110257	1.5872	0.0198057	1	10	0.0103439	0.000500993	0.0481303	0.00541035	0.0484335	6.41371
29384.8	20.7002	3.38382	20.9749	-9.28393	7.00809	-0.0420745	0.0106677	1.60063	0.0416586	1	10	0.0101934	0.000485982	0.0470515	0.00769142	0.047676	9.28393
19853.5	20.9539	4.8452	21.5068	-13.0198	7.41609	-0.042078	0.0107386	1.65452	0.0839738	1	10	0.0101035	0.000469784	0.0453016	0.0104752	0.0464969	13.0198
13418	21.299	6.93012	22.3981	-18.0235	7.6931	-0.0420461	0.0114155	1.71156	0.163853	1	10	0.010566	0.000471735	0.0424559	0.013814	0.0446467	18.0235
9082.03	21.7484	9.81311	23.8598	-24.2854	7.99033	-0.0420751	0.010099	1.78579	0.302071	1	10	0.0107485	0.000450486	0.0382026	0.0172374	0.0419114	24.2854
6140.96	22.384	13.9658	26.3835	-31.9608	8.39364	-0.0420872	0.00827526	1.85574	0.51998	1	10	0.010785	0.00040878	0.0321569	0.0200633	0.0379025	31.9608
4141.32	23.3459	19.8637	30.6528	-40.3926	8.8597	-0.042057	0.00975959	1.93473	0.812455	1	10	0.0107501	0.000350705	0.0248467	0.0211407	0.0326234	40.3926
2797.31	24.7081	28.3189	37.5826	-48.8954	9.79995	-0.0420704	0.00117468	2.00911	1.14073	1	11	0.0102474	0.000272663	0.0174931	0.0200495	0.0266081	48.8954
1890.6	26.5617	40.2933	48.2605	-56.6068	10.2647	-0.0420723	0.001283	2.08923	1.45636	1	11	0.00987145	0.000204545	0.0114044	0.0173001	0.0207209	56.6068
1287.12	29.1285	56.9493	63.9663	-62.9111	10.7312	-0.0420675	0.00128747	2.17127	1.72103	1	11	0.00961977	0.000150388	0.00711894	0.0139183	0.0156332	62.9111
863.066	32.7517	81.7057	88.0255	-68.1566	11.1982	-0.0420773	0.00109917	2.25696	1.94451	1	11	0.00947525	0.000107642	0.00422685	0.0105447	0.0113603	68.1566
583.692	37.919	116.079	122.116	-71.9096	11.6652	-0.0420687	0.00119388	2.34899	2.1225	1	11	0.00939307	7.69194e-05	0.00254281	0.00778416	0.00818896	71.9096
394.117	44.8404	165.556	171.521	-74.8452	12.1322	-0.04207	0.00111949	2.43922	2.27251	1	11	0.00935644	5.455e-05	0.00152418	0.00562745	0.0058302	74.8452
266.449	56.55	236.083	242.762	-76.5295	12.5957	-0.0420785	0.001228	2.53011	2.39282	1	11	0.00933648	3.84594e-05	0.000959561	0.00400594	0.00411926	76.5295
180.058	72.2718	336.788	344.455	-77.8885	13.3137	-0.0420779	-8.04018e-05	2.62453	2.50899	1	12	0.00940518	2.73045e-05	0.00060912	0.00283851	0.00290313	77.8885
121.595	91.1956	483.319	491.848	-79.3147	13.7741	-0.0420743	0.000148937	2.70813	2.61503	1	12	0.00935448	1.90191e-05	0.000376975	0.0019979	0.00203315	79.3147
82.2368	125.358	687.025	698.369	-79.6593	14.2293	-0.0420735	5.07082e-06	2.81696	2.7262	1	12	0.00933964	1.33735e-05	0.00025703	0.00140865	0.00143191	79.6593
55.5152	150.629	996.084	1007.41	-81.4008	14.6919	-0.0420748	1.38176e-05	2.87814	2.8138	1	12	0.00933892	9.27024e-06	0.000148422	0.000981487	0.000992646	81.4008
37.5601	215.693	1391.05	1407.68	-81.1861	15.1828	-0.0420741	-1.24604e-05	3.04614	2.97462	1	12	0.00932205	6.6223e-06	0.00010885	0.000702002	0.000710391	81.1861
25.3653	326.899	2005.59	2032.05	-80.7425	15.8919	-0.0420755	-2.12679e-05	3.12852	3.04756	1	13	0.00933885	4.59577e-06	7.91668e-05	0.000485703	0.000492113	80.7425
17.1327	465.789	2871.72	2909.25	-80.7869	16.3048	-0.0420832	7.64354e-06	3.23484	3.15192	1	13	0.00932812	3.20636e-06	5.50334e-05	0.000339297	0.000343731	80.7869
11.5912	679.65	4061.89	4118.36	-80.5011	16.7143	-0.0420877	2.02521e-05	3.38035	3.28829	1	13	0.00932461	2.26416e-06	4.00715e-05	0.000239486	0.000242815	80.5011
7.82815	1013	5800.9	5888.68	-80.0945	17.2963	-0.0420785	3.78409e-06	3.50482	3.4011	1	13	0.00932316	1.58323e-06	2.92127e-05	0.000167286	0.000169817	80.0945
5.29302	1460.8	8162.61	8292.29	-79.8536	18.1327	-0.0420719	1.7896e-06	3.68373	3.56941	1	13	0.00932183	1.12416e-06	2.12442e-05	0.000118708	0.000120594	79.8536
3.57551	2297.82	11590.9	11816.4	-78.7868	19.9553	-0.042071	-7.74529e-07	3.84031	3.69509	1	14	0.0093227	7.88961e-07	1.64567e-05	8.30124e-05	8.4628e-05	78.7868
2.41723	3506.53	16309.7	16682.4	-77.8663	21.7326	-0.0420714	-1.73311e-06	4.03697	3.85861	1	14	0.00932216	5.58802e-07	1.25997e-05	5.86043e-05	5.99434e-05	77.8663
1.63271	5343.17	22832.5	23449.4	-76.8289	24.3434	-0.0420711	-2.24447e-06	4.26932	4.04766	1	14	0.00932285	3.97574e-07	9.71711e-06	4.15233e-05	4.26451e-05	76.8289
1.10206	8159.01	31855.8	32884.1	-75.634	28.1925	-0.0420691	-1.92175e-06	4.53343	4.25434	1	14	0.00932241	2.83493e-07	7.54512e-06	2.9459e-05	3.04099e-05	75.634
0.745609	12704.1	43990.5	45788.2	-73.8917	33.8632	-0.0420712	-2.05551e-06	4.85233	4.47879	1	14	0.00932041	2.03555e-07	6.05952e-06	2.09823e-05	2.18397e-05	73.8917
0.503902	19717.8	60430.7	63566.2	-71.9291	42.2389	-0.0420656	-2.39437e-06	5.22656	4.72366	1	14	0.00932001	1.46619e-07	4.87985e-06	1.49556e-05	1.57316e-05	71.9291
0.340103	29775.2	81342.8	86621.1	-69.895	54.6323	-0.0420655	-1.84045e-06	5.75296	5.0732	1	14	0.00932049	1.07601e-07	3.96833e-06	1.08411e-05	1.15445e-05	69.895
0.230213	44403.3	109192	117875	-67.8708	72.9255	-0.0420708	-1.10282e-06	6.33139	5.43296	1	14	0.00932119	7.90767e-08	3.19573e-06	7.85861e-06	8.48354e-06	67.8708
0.155473	62168	142319	155305	-66.4033	99.9967	-0.0420709	-1.59343e-05	7.19287	6.04031	1	14	0.00932035	6.00132e-08	2.57748e-06	5.90056e-06	6.43894e-06	66.4033
0.105049	97890.9	188030	211986	-62.4979	140.046	-0.042071	-1.62038e-05	8.05751	6.33931	1	14	0.00932062	4.39682e-08	2.17836e-06	4.18422e-06	4.7173e-06	62.4979
0.0710227	138746	245262	281787	-60.5029	199.267	-0.042072	-1.01023e-05	9.13676	6.92167	1	14	0.00932146	3.30798e-08	1.74734e-06	3.08879e-06	3.54878e-06	60.5029
0.0479883	204581	312965	373899	-56.8279	286.898	-0.0420761	-4.68256e-06	10.5972	7.42459	1	14	0.00932105	2.49293e-08	1.46338e-06	2.23866e-06	2.67452e-06	56.8279
0.0324439	306571	388004	494502	-51.6868	416.498	-0.0420791	1.35767e-06	12.643	7.78369	1	14	0.0093215	1.88503e-08	1.2537e-06	1.58671e-06	2.02223e-06	51.6868
0.0219206	454508	507810	681505	-48.1703	608.299	-0.0420726	1.03344e-05	14.2977	7.93837	1	14	0.00931954	1.36749e-08	9.78597e-07	1.09336e-06	1.46734e-06	48.1703
0.0148076	643048	757741	993822	-49.6808	892.217	-0.0420678	2.57516e-05	14.1845	8.24591	1	14	0.00932227	9.38022e-09	6.51068e-07	7.67191e-07	1.00622e-06	49.6808
0.0100006	863425	751656	1.14477e+06	-41.0412	1312.59	-0.0420646	2.57354e-05	21.1726	9.12805	1	14	0.0093206	8.14193e-09	6.58857e-07	5.73569e-07	8.73541e-07	41.0412