File: Python Codes/EIS_Processing/0720_05_Plotting/0920_02_0.5MTFSI_ZnEMD_InsideGB_0hr_RT_BCD_Messing_Around_01_PEIS_C05.mpt
EC-Lab ASCII FILE
Nb header lines : 62

Potentio Electrochemical Impedance Spectroscopy

Run on channel : 5 (SN 35518)
User :
CE vs. WE compliance from -10 V to 10 V
Electrode connection : standard
Ewe ctrl range : min = -5.00 V, max = 5.00 V
Safety Limits :
	Do not start on E overload
Acquisition started on : 09/28/2023 19:04:55
Technique started on : 09/28/2023 19:04:56
Saved on :
	File : 0920_02_0.5MTFSI_ZnEMD_InsideGB_0hr_RT_BCD_Messing_Around_01_PEIS_C05.mpr
	Directory : C:\Users\CESL\Documents\EC-Lab\Data\PhD\Leifer\Results\Zn Ion GPE\2023\0920\
	Host : 10.110.196.171
Device : VSP (SN 1724172417241724)
Address : USB
EC-Lab for windows v11.16 (software)
Internet server v11.16 (firmware)
Command interpretor v11.16 (firmware)
Electrode material : Au/Pd
Initial state :
Electrolyte : NaCl (0.2M)
Comments : Fe(CN)63-/Fe(CN)64- 5.10-3 M
Reference electrode : SCE Saturated Calomel Electrode (0.241 V)
Electrode surface area : 0.001 cm²
Characteristic mass : 0.001 g
Equivalent Weight : 0.000 g/eq.
Density : 0.000 g/cm3
Cycle Definition : Charge/Discharge alternance
Mode                Single sine
E (V)               0.0000
vs.                 Eoc
tE (h:m:s)          0:00:0.0000
record              0
dI                  0.000
unit dI             mA
dt (s)              0.000
fi                  1.000
unit fi             MHz
ff                  10.000
unit ff             mHz
Nd                  6
Points              per decade
spacing             Logarithmic
Va (mV)             10.0
pw                  0.10
Na                  2
corr                1
E range min (V)     -5.000
E range max (V)     5.000
I Range             Auto
Bandwidth           5
nc cycles           0
goto Ns'            0
nr cycles           0
inc. cycle          0

freq/Hz	Re(Z)/Ohm	-Im(Z)/Ohm	|Z|/Ohm	Phase(Z)/deg	time/s	<Ewe>/V	<I>/mA	Cs/µF	Cp/µF	cycle number	I Range	|Ewe|/V	|I|/A	Re(Y)/Ohm-1	Im(Y)/Ohm-1	|Y|/Ohm-1	Phase(Y)/deg
1.00002e+06	0.400956	3.13699	3.16251	-82.7162	1.97409	1.18145	0.0888666	0.050734	0.0499185	1	9	0.000154317	4.87959e-05	0.0400897	0.313653	0.316205	82.7162
675752	-383.489	127.614	404.165	-161.594	2.97109	1.18122	-0.000549656	0.00184559	0.000183998	1	11	0.000834973	2.06592e-06	-0.00234766	0.000781231	0.00247424	161.594
456640	25.895	-4.53701	26.2894	9.93782	4.2621	1.18135	0.00479511	-0.0768203	-0.00228799	1	10	0.00561833	0.00021371	0.0374674	-0.00656459	0.0380381	-9.93782
308574	17.605	-1.56677	17.6746	5.08566	4.67109	1.18122	0.005588	-0.329197	-0.00258682	1	10	0.0104096	0.000588957	0.0563556	-0.00501539	0.0565783	-5.08566
208525	15.3937	-0.380415	15.3984	1.41562	5.21209	1.18128	0.00664207	-2.00634	-0.00122452	1	10	0.0101826	0.000661275	0.0649219	-0.00160437	0.0649417	-1.41562
140908	14.6774	0.447261	14.6842	-1.74542	5.7531	1.1813	0.00643871	2.52536	0.00234285	1	10	0.0101171	0.000688977	0.0680689	0.00207425	0.0681005	1.74542
95214.8	14.471	1.21839	14.5222	-4.81267	6.1621	1.18131	0.00722974	1.37192	0.00965684	1	10	0.0108755	0.000748886	0.0686172	0.00577723	0.06886	4.81267
64345.7	14.544	2.03179	14.6853	-7.9527	6.5711	1.18131	0.00742935	1.21737	0.0233032	1	10	0.0106436	0.000724779	0.0674405	0.00942137	0.0680954	7.9527
43476.5	14.7848	2.99849	15.0858	-11.4646	6.97909	1.18132	0.00736219	1.22085	0.0482312	1	10	0.0104518	0.000692821	0.0649647	0.0131754	0.0662873	11.4646
29384.8	15.1984	4.202	15.7686	-15.4548	7.38808	1.18133	0.00748906	1.28897	0.0915309	1	10	0.010193	0.000646408	0.061124	0.0168993	0.0634172	15.4548
19853.5	15.7818	5.77169	16.8041	-20.0883	7.7971	1.18132	0.00689579	1.38893	0.163853	1	10	0.0102387	0.0006093	0.0558889	0.0204396	0.0595092	20.0883
13418	16.5786	7.83653	18.3374	-25.2996	8.07409	1.18132	0.00649468	1.51359	0.276428	1	10	0.0106763	0.000582212	0.0493028	0.0233049	0.0545333	25.2996
9082.03	17.6979	10.608	20.6336	-30.9382	8.37133	1.18132	0.00732302	1.65198	0.436639	1	10	0.0107739	0.000522156	0.0415693	0.0249164	0.0484647	30.9382
6140.96	19.1562	14.2556	23.8785	-36.6558	8.77464	1.18134	0.00614581	1.81802	0.647971	1	10	0.0107249	0.000449144	0.0335966	0.0250018	0.0418786	36.6558
4141.32	21.1559	19.3725	28.6856	-42.4805	9.2407	1.18137	0.00766441	1.98378	0.90477	1	10	0.0106434	0.000371037	0.02571	0.0235428	0.0348606	42.4805
2797.31	23.992	26.097	35.4496	-47.4065	9.70695	1.18136	0.00674094	2.18016	1.18154	1	10	0.0105752	0.000298318	0.0190917	0.0207668	0.0282091	47.4065
1890.6	27.8416	35.199	44.879	-51.6568	10.6467	1.18134	0.000713664	2.3916	1.47117	1	11	0.0100259	0.000223398	0.0138232	0.0174761	0.0222821	51.6568
1287.12	33.1423	47.023	57.5289	-54.8234	11.1132	1.18134	0.000682523	2.62961	1.75687	1	11	0.00978233	0.000170042	0.0100141	0.0142082	0.0173826	54.8234
863.066	40.6383	63.0389	75.0025	-57.192	11.5802	1.18134	0.00072429	2.92528	2.06649	1	11	0.00962923	0.000128386	0.00722411	0.0112062	0.0133329	57.192
583.692	50.5833	83.7107	97.8067	-58.857	12.0472	1.18134	0.000766058	3.25728	2.38605	1	11	0.00955147	9.76566e-05	0.00528773	0.00875072	0.0102242	58.857
394.117	63.9878	111.039	128.157	-60.0468	12.5142	1.18134	0.000616697	3.63679	2.73016	1	11	0.00951366	7.42346e-05	0.00389595	0.00676073	0.00780294	60.0468
266.449	82.3782	147.225	168.705	-60.7713	12.9776	1.18134	0.000693707	4.05717	3.0898	1	11	0.00948749	5.62371e-05	0.00289438	0.0051728	0.0059275	60.7713
180.058	107.751	195.081	222.861	-61.0865	13.4427	1.18134	0.000673009	4.53099	3.47182	1	11	0.00947713	4.25249e-05	0.00216946	0.00392779	0.0044871	61.0865
121.595	144.664	256.214	294.233	-60.5499	14.1521	1.18135	-4.28012e-05	5.10859	3.87367	1	12	0.00952236	3.23633e-05	0.00167101	0.00295951	0.00339867	60.5499
82.2368	193.931	331.441	384.009	-59.6674	14.6073	1.18134	-5.10256e-05	5.83912	4.34989	1	12	0.00949483	2.47256e-05	0.00131512	0.00224763	0.00260411	59.6674
55.5152	256.523	424.635	496.103	-58.8637	15.0689	1.18135	5.9473e-06	6.75139	4.94629	1	12	0.00948074	1.91104e-05	0.00104227	0.00172532	0.00201571	58.8637
37.5601	333.835	540.572	635.345	-58.3022	15.5598	1.18135	-1.53129e-05	7.83863	5.6745	1	12	0.00947621	1.49151e-05	0.000827013	0.00133916	0.00157395	58.3022
25.3653	427.204	687.685	809.576	-58.1506	16.0189	1.18135	4.7031e-05	9.12413	6.58347	1	12	0.0094713	1.16991e-05	0.000651808	0.00104924	0.00123521	58.1506
17.1327	553.991	878.461	1038.56	-57.7629	16.4328	1.18134	1.00498e-05	10.5748	7.56584	1	12	0.00946684	9.11538e-06	0.00051362	0.000814446	0.000962875	57.7629
11.5912	686.232	1132.45	1324.15	-58.7854	17.0683	1.18134	-1.73826e-05	12.1247	8.86826	1	13	0.00947697	7.15705e-06	0.000391381	0.000645875	0.000755204	58.7854
7.82815	854.557	1470.02	1700.36	-59.8295	17.6503	1.18134	8.7965e-06	13.8305	10.3372	1	13	0.00947348	5.57146e-06	0.00029557	0.000508442	0.000588112	59.8295
5.29302	1053.62	1929.14	2198.11	-61.3584	18.4867	1.18135	2.2044e-06	15.5867	12.0055	1	13	0.0094704	4.30843e-06	0.000218064	0.000399269	0.000454937	61.3584
3.57551	1282.33	2548.64	2853.06	-63.291	19.7023	1.18135	5.72113e-06	17.4652	13.937	1	13	0.00947134	3.31972e-06	0.000157536	0.000313103	0.000350501	63.291
2.41723	1566.54	3422.46	3763.94	-65.4053	21.4795	1.18135	3.54618e-06	19.2382	15.9057	1	13	0.00946967	2.51589e-06	0.000110575	0.000241575	0.000265679	65.4053
1.63271	1918.27	4652.43	5032.38	-67.5929	25.3634	1.18135	8.78079e-09	20.9523	17.9079	1	14	0.00947341	1.88249e-06	7.57465e-05	0.00018371	0.000198713	67.5929
1.10206	2374.27	6382.45	6809.76	-69.5948	29.2124	1.18135	4.3428e-07	22.627	19.8764	1	14	0.00947159	1.39088e-06	5.11996e-05	0.000137633	0.000146848	69.5948
0.745609	2911.27	8781.23	9251.24	-71.6579	34.8842	1.18135	3.88436e-08	24.3082	21.901	1	14	0.00946852	1.02349e-06	3.40159e-05	0.000102602	0.000108094	71.6579
0.503902	3604.9	12226.6	12747	-73.5724	43.26	1.18135	3.57253e-07	25.8326	23.7665	1	14	0.00946929	7.42866e-07	2.2186e-05	7.52475e-05	7.845e-05	73.5724
0.340103	4478.62	17226.3	17799	-75.4265	55.6535	1.18135	6.20275e-07	27.1655	25.4456	1	14	0.0094673	5.31902e-07	1.41369e-05	5.43754e-05	5.6183e-05	75.4265
0.230213	5752.51	24336.5	25007.1	-76.7009	73.9469	1.18136	8.40379e-09	28.4075	26.9043	1	14	0.00946833	3.78626e-07	9.19879e-06	3.89162e-05	3.99886e-05	76.7009
0.155473	7680.93	34631.6	35473.1	-77.4948	101.018	1.18136	6.7606e-08	29.5593	28.1734	1	14	0.00946859	2.66923e-07	6.10401e-06	2.75216e-05	2.81904e-05	77.4948
0.105049	10653.6	49227.9	50367.5	-77.7887	141.068	1.18136	3.81114e-08	30.7763	29.3994	1	14	0.00946827	1.87984e-07	4.19948e-06	1.94049e-05	1.98541e-05	77.7887
0.0710227	15453.4	69968.9	71655.1	-77.5455	200.289	1.18136	-2.97335e-07	32.0271	30.5375	1	14	0.00946759	1.32127e-07	3.00975e-06	1.36273e-05	1.39557e-05	77.5455
0.0479883	23397.2	99128.7	101852	-76.7196	287.92	1.18136	-4.92138e-07	33.4569	31.6914	1	14	0.0094682	9.296e-08	2.25539e-06	9.55557e-06	9.81813e-06	76.7196
0.0324439	36783.8	139394	144166	-75.2176	417.52	1.18137	-4.77683e-07	35.1918	32.9008	1	14	0.0094683	6.56764e-08	1.76983e-06	6.70686e-06	6.93644e-06	75.2176
0.0219206	59691.8	194909	203845	-72.9725	609.322	1.18137	-1.51013e-06	37.2508	34.0566	1	14	0.00946701	4.64423e-08	1.43653e-06	4.69065e-06	4.90569e-06	72.9725
0.0148076	97898.1	268431	285726	-69.9629	893.241	1.18136	-8.72135e-08	40.0407	35.3401	1	14	0.00946862	3.31388e-08	1.19915e-06	3.28801e-06	3.49985e-06	69.9629
0.0100006	163377	362750	397843	-65.754	1313.62	1.18136	-1.54693e-08	43.8718	36.4733	1	14	0.0094673	2.37966e-08	1.0322e-06	2.29183e-06	2.51355e-06	65.754