File: Python Codes/EIS_Processing/0720_05_Plotting/0928_01_0.5MTFSI_ZnEMD_InsideGB_0hr_RT_EIS-Remade_from_091923-01_BCD_C01.mpt
EC-Lab ASCII FILE
Nb header lines : 70

Battery Capacity Determination

Run on channel : 1 (SN 35512)
User :
CE vs. WE compliance from -10 V to 10 V
Electrode connection : standard
Ewe ctrl range : min = -5.00 V, max = 5.00 V
Safety Limits :
	Do not start on E overload
Acquisition started on : 09/29/2023 08:44:31
Technique started on : 09/29/2023 08:44:31
Saved on :
	File : 0928_01_0.5MTFSI_ZnEMD_InsideGB_0hr_RT_EIS-Remade_from_091923-01_BCD_C01.mpr
	Directory : C:\Users\CESL\Documents\EC-Lab\Data\PhD\Leifer\Results\Zn Ion GPE\2023\0928\
	Host : 10.110.196.171
Device : VSP (SN 1724172417241724)
Address : USB
EC-Lab for windows v11.16 (software)
Internet server v11.16 (firmware)
Command interpretor v11.16 (firmware)
Electrode material : Au/Pd
Initial state :
Electrolyte : NaCl (0.2M)
Comments : Fe(CN)63-/Fe(CN)64- 5.10-3 M
Reference electrode : SCE Saturated Calomel Electrode (0.241 V)
Electrode surface area : 0.001 cm²
Characteristic mass : 0.001 g
Equivalent Weight : 0.000 g/eq.
Density : 0.000 g/cm3
Cycle Definition : Charge/Discharge alternance
Set I/C             I
Is1                 100.000
unit Is1            µA
N1                  1.00
I1 sign             > 0
t1 (h:m:s)          11:00:0.0000
EM1 (V)             1.900
EM1 vs.             Ref
EM2 (V)             0.800
EM2 vs.             Ref
dE1 (mV)            0.00
dt1 (s)             10.0000
Hold EM1            1
tM1 (h:m:s)         1:00:0.0000
Set I limit         0
Im                  90.000
unit Im             µA
Nl                  20.00
I Range             1 mA
Bandwidth           5
E range min (V)     -5.000
E range max (V)     5.000
tR (h:m:s)          0:00:0.0000
dER/dt (mV/h)       0.0
dER (mV)            0.00
dtR (s)             0.0000
Charge/Discharge    1
Set I/C             I
Is2                 -100.000
unit Is2            µA
N2                  1.00
I2 sign             > 0
t2 (h:m:s)          11:00:0.0000
Return Ei           0
use C               1

mode	ox/red	error	control changes	time/s	control/V/mA	Ewe/V	I/mA	dq/mA.h	(Q-Qo)/mA.h	Q charge/discharge/mA.h	half cycle	Energy charge/W.h	Energy discharge/W.h	Capacitance charge/µF	Capacitance discharge/µF	Q discharge/mA.h	Q charge/mA.h	Capacity/mA.h	Efficiency/%	control/V	control/mA	cycle number	P/W
1	1	0	1	0.000000000000000E+000	0.1	-1.12945	0.099863	0.000000000000000E+000	0.000000000000000E+000	0.000000000000000E+000	0	0.000000000000000E+000	0.000000000000000E+000	0.000000000000000E+000	0.000000000000000E+000	0.000000000000000E+000	0.000000000000000E+000	0.000000000000000E+000	0	0	0.1	0.000000000000000E+000	-0.000112791
1	1	0	1	400	0.1	-0.322237	0.0998376	0.000277304	0.0110926	0.0110926	0	-5.54187e-06	0.000000000000000E+000	75987.1	0.000000000000000E+000	0.000000000000000E+000	0.0110926	0.0110926	0	0	0.1	0.000000000000000E+000	-3.21714e-05
1	1	0	1	800	0.1	-0.115994	0.0997866	0.000277288	0.0221843	0.0221843	0	-7.9919e-06	0.000000000000000E+000	109137	0.000000000000000E+000	0.000000000000000E+000	0.0221843	0.0221843	0	0	0.1	0.000000000000000E+000	-1.15746e-05
1	1	0	1	1200	0.1	0.164987	0.0998121	0.000277314	0.0332763	0.0332763	0	-7.74568e-06	0.000000000000000E+000	118286	0.000000000000000E+000	0.000000000000000E+000	0.0332763	0.0332763	0	0	0.1	0.000000000000000E+000	1.64677e-05
1	1	0	1	1600	0.1	0.248194	0.0998248	0.000277274	0.0443675	0.0443675	0	-5.05989e-06	0.000000000000000E+000	145738	0.000000000000000E+000	0.000000000000000E+000	0.0443675	0.0443675	0	0	0.1	0.000000000000000E+000	2.47759e-05
1	1	0	1	2000	0.1	0.230742	0.0998312	0.000277266	0.0554584	0.0554584	0	-2.41355e-06	0.000000000000000E+000	185117	0.000000000000000E+000	0.000000000000000E+000	0.0554584	0.0554584	0	0	0.1	0.000000000000000E+000	2.30352e-05
1	1	0	1	2400	0.1	0.219113	0.0997803	0.000277274	0.0665491	0.0665491	0	7.61002e-08	0.000000000000000E+000	224559	0.000000000000000E+000	0.000000000000000E+000	0.0665491	0.0665491	0	0	0.1	0.000000000000000E+000	2.18631e-05
1	1	0	1	2800	0.1	0.209737	0.0998185	0.000277273	0.07764	0.07764	0	2.45262e-06	0.000000000000000E+000	264306	0.000000000000000E+000	0.000000000000000E+000	0.07764	0.07764	0	0	0.1	0.000000000000000E+000	2.09356e-05
1	1	0	1	3200	0.1	0.200744	0.0997866	0.000277276	0.0887308	0.0887308	0	4.7275e-06	0.000000000000000E+000	304652	0.000000000000000E+000	0.000000000000000E+000	0.0887308	0.0887308	0	0	0.1	0.000000000000000E+000	2.00315e-05
1	1	0	1	3600	0.1	0.192533	0.0998821	0.000277277	0.0998215	0.0998215	0	6.90771e-06	0.000000000000000E+000	345437	0.000000000000000E+000	0.000000000000000E+000	0.0998215	0.0998215	0	0	0.1	0.000000000000000E+000	1.92306e-05
1	1	0	1	4000	0.1	0.184838	0.0998439	0.000277262	0.110912	0.110912	0	8.99929e-06	0.000000000000000E+000	386677	0.000000000000000E+000	0.000000000000000E+000	0.110912	0.110912	0	0	0.1	0.000000000000000E+000	1.84549e-05
1	1	0	1	4400	0.1	0.177753	0.0998248	0.000277264	0.122003	0.122003	0	1.10092e-05	0.000000000000000E+000	428280	0.000000000000000E+000	0.000000000000000E+000	0.122003	0.122003	0	0	0.1	0.000000000000000E+000	1.77442e-05
1	1	0	1	4800	0.1	0.171777	0.099793	0.000277268	0.133093	0.133093	0	1.29469e-05	0.000000000000000E+000	469952	0.000000000000000E+000	0.000000000000000E+000	0.133093	0.133093	0	0	0.1	0.000000000000000E+000	1.71421e-05
1	1	0	1	5200	0.1	0.166526	0.0998185	0.000277284	0.144184	0.144184	0	1.48213e-05	0.000000000000000E+000	511750	0.000000000000000E+000	0.000000000000000E+000	0.144184	0.144184	0	0	0.1	0.000000000000000E+000	1.66223e-05
1	1	0	1	5600	0.1	0.162439	0.0998567	0.000277279	0.155275	0.155275	0	1.66441e-05	0.000000000000000E+000	553345	0.000000000000000E+000	0.000000000000000E+000	0.155275	0.155275	0	0	0.1	0.000000000000000E+000	1.62206e-05
1	1	0	1	6000	0.1	0.15862	0.0997675	0.000277282	0.166366	0.166366	0	1.8423e-05	0.000000000000000E+000	595119	0.000000000000000E+000	0.000000000000000E+000	0.166366	0.166366	0	0	0.1	0.000000000000000E+000	1.58252e-05
1	1	0	1	6400	0.1	0.155603	0.0997866	0.000277283	0.177458	0.177458	0	2.01646e-05	0.000000000000000E+000	636703	0.000000000000000E+000	0.000000000000000E+000	0.177458	0.177458	0	0	0.1	0.000000000000000E+000	1.55271e-05
1	1	0	1	6800	0.1	0.152835	0.0997675	0.000277252	0.188549	0.188549	0	2.18738e-05	0.000000000000000E+000	678367	0.000000000000000E+000	0.000000000000000E+000	0.188549	0.188549	0	0	0.1	0.000000000000000E+000	1.52479e-05
1	1	0	1	7200	0.1	0.149856	0.0998376	0.000277267	0.199639	0.199639	0	2.35543e-05	0.000000000000000E+000	720414	0.000000000000000E+000	0.000000000000000E+000	0.199639	0.199639	0	0	0.1	0.000000000000000E+000	1.49612e-05
1	1	0	1	7600	0.1	0.147984	0.0997675	0.000277286	0.21073	0.21073	0	2.52058e-05	0.000000000000000E+000	761866	0.000000000000000E+000	0.000000000000000E+000	0.21073	0.21073	0	0	0.1	0.000000000000000E+000	1.4764e-05
1	1	0	1	8000	0.1	0.14638	0.0998821	0.000277282	0.221821	0.221821	0	2.6839e-05	0.000000000000000E+000	803258	0.000000000000000E+000	0.000000000000000E+000	0.221821	0.221821	0	0	0.1	0.000000000000000E+000	1.46208e-05
1	1	0	1	8400	0.1	0.144929	0.0998185	0.00027732	0.232913	0.232913	0	2.84544e-05	0.000000000000000E+000	844656	0.000000000000000E+000	0.000000000000000E+000	0.232913	0.232913	0	0	0.1	0.000000000000000E+000	1.44666e-05
1	1	0	1	8800	0.1	0.143211	0.0997357	0.000277326	0.244006	0.244006	0	3.0052e-05	0.000000000000000E+000	886419	0.000000000000000E+000	0.000000000000000E+000	0.244006	0.244006	0	0	0.1	0.000000000000000E+000	1.42832e-05
1	1	0	1	9200	0.1	0.141702	0.0998057	0.000277318	0.255099	0.255099	0	3.16319e-05	0.000000000000000E+000	928130	0.000000000000000E+000	0.000000000000000E+000	0.255099	0.255099	0	0	0.1	0.000000000000000E+000	1.41427e-05
1	1	0	1	9600	0.1	0.140194	0.0998057	0.000277294	0.266191	0.266191	0	3.31951e-05	0.000000000000000E+000	969967	0.000000000000000E+000	0.000000000000000E+000	0.266191	0.266191	0	0	0.1	0.000000000000000E+000	1.39921e-05
1	1	0	1	10000	0.1	0.138781	0.0997866	0.000277308	0.277283	0.277283	0	3.4742e-05	0.000000000000000E+000	1.01183e+06	0.000000000000000E+000	0.000000000000000E+000	0.277283	0.277283	0	0	0.1	0.000000000000000E+000	1.38485e-05
1	1	0	1	10400	0.1	0.137387	0.0998057	0.000277291	0.288375	0.288375	0	3.62736e-05	0.000000000000000E+000	1.0538e+06	0.000000000000000E+000	0.000000000000000E+000	0.288375	0.288375	0	0	0.1	0.000000000000000E+000	1.3712e-05
1	1	0	1	10800	0.1	0.136165	0.0998121	0.000277281	0.299466	0.299466	0	3.77908e-05	0.000000000000000E+000	1.09569e+06	0.000000000000000E+000	0.000000000000000E+000	0.299466	0.299466	0	0	0.1	0.000000000000000E+000	1.35909e-05
1	1	0	1	11200	0.1	0.134885	0.0998694	0.000277278	0.310557	0.310557	0	3.9294e-05	0.000000000000000E+000	1.13775e+06	0.000000000000000E+000	0.000000000000000E+000	0.310557	0.310557	0	0	0.1	0.000000000000000E+000	1.34709e-05
1	1	0	1	11600	0.1	0.133892	0.0998185	0.000277285	0.321649	0.321649	0	4.07845e-05	0.000000000000000E+000	1.17957e+06	0.000000000000000E+000	0.000000000000000E+000	0.321649	0.321649	0	0	0.1	0.000000000000000E+000	1.33649e-05
1	1	0	1	12000	0.1	0.132766	0.0999331	0.000277306	0.33274	0.33274	0	4.22624e-05	0.000000000000000E+000	1.22165e+06	0.000000000000000E+000	0.000000000000000E+000	0.33274	0.33274	0	0	0.1	0.000000000000000E+000	1.32677e-05
1	1	0	1	12400	0.1	0.131639	0.0998439	0.000277333	0.343833	0.343833	0	4.37289e-05	0.000000000000000E+000	1.26383e+06	0.000000000000000E+000	0.000000000000000E+000	0.343833	0.343833	0	0	0.1	0.000000000000000E+000	1.31434e-05
1	1	0	1	12800	0.1	0.130646	0.0998885	0.000277334	0.354927	0.354927	0	4.51841e-05	0.000000000000000E+000	1.30593e+06	0.000000000000000E+000	0.000000000000000E+000	0.354927	0.354927	0	0	0.1	0.000000000000000E+000	1.30501e-05
1	1	0	1	13200	0.1	0.129596	0.0997675	0.000277321	0.36602	0.36602	0	4.66274e-05	0.000000000000000E+000	1.34819e+06	0.000000000000000E+000	0.000000000000000E+000	0.36602	0.36602	0	0	0.1	0.000000000000000E+000	1.29295e-05
1	1	0	1	13600	0.1	0.128584	0.0997866	0.000277313	0.377113	0.377113	0	4.80596e-05	0.000000000000000E+000	1.39049e+06	0.000000000000000E+000	0.000000000000000E+000	0.377113	0.377113	0	0	0.1	0.000000000000000E+000	1.2831e-05
1	1	0	1	14000	0.1	0.127553	0.0998885	0.000277316	0.388205	0.388205	0	4.94809e-05	0.000000000000000E+000	1.4329e+06	0.000000000000000E+000	0.000000000000000E+000	0.388205	0.388205	0	0	0.1	0.000000000000000E+000	1.27411e-05
1	1	0	1	14400	0.1	0.126713	0.0998121	0.000277309	0.399298	0.399298	0	5.08914e-05	0.000000000000000E+000	1.47512e+06	0.000000000000000E+000	0.000000000000000E+000	0.399298	0.399298	0	0	0.1	0.000000000000000E+000	1.26475e-05
1	1	0	1	14800	0.1	0.125815	0.0998503	0.000277308	0.41039	0.41039	0	5.22919e-05	0.000000000000000E+000	1.51749e+06	0.000000000000000E+000	0.000000000000000E+000	0.41039	0.41039	0	0	0.1	0.000000000000000E+000	1.25627e-05
1	1	0	1	15200	0.1	0.124994	0.0998121	0.000277286	0.421482	0.421482	0	5.36826e-05	0.000000000000000E+000	1.55982e+06	0.000000000000000E+000	0.000000000000000E+000	0.421482	0.421482	0	0	0.1	0.000000000000000E+000	1.24759e-05
1	1	0	1	15600	0.1	0.124173	0.0998439	0.000277299	0.432574	0.432574	0	5.50637e-05	0.000000000000000E+000	1.60223e+06	0.000000000000000E+000	0.000000000000000E+000	0.432574	0.432574	0	0	0.1	0.000000000000000E+000	1.23979e-05
1	1	0	1	16000	0.1	0.123352	0.0998312	0.00027729	0.443666	0.443666	0	5.6436e-05	0.000000000000000E+000	1.6447e+06	0.000000000000000E+000	0.000000000000000E+000	0.443666	0.443666	0	0	0.1	0.000000000000000E+000	1.23144e-05
1	1	0	1	16400	0.1	0.122512	0.0998057	0.000277296	0.454757	0.454757	0	5.77998e-05	0.000000000000000E+000	1.68728e+06	0.000000000000000E+000	0.000000000000000E+000	0.454757	0.454757	0	0	0.1	0.000000000000000E+000	1.22274e-05
1	1	0	1	16800	0.1	0.121977	0.0998248	0.000277286	0.465849	0.465849	0	5.91556e-05	0.000000000000000E+000	1.72938e+06	0.000000000000000E+000	0.000000000000000E+000	0.465849	0.465849	0	0	0.1	0.000000000000000E+000	1.21764e-05
1	1	0	1	17200	0.1	0.12108	0.0997994	0.000277299	0.476941	0.476941	0	6.05034e-05	0.000000000000000E+000	1.7722e+06	0.000000000000000E+000	0.000000000000000E+000	0.476941	0.476941	0	0	0.1	0.000000000000000E+000	1.20837e-05
1	1	0	1	17600	0.1	0.120622	0.0998821	0.000277308	0.488033	0.488033	0	6.18438e-05	0.000000000000000E+000	1.81427e+06	0.000000000000000E+000	0.000000000000000E+000	0.488033	0.488033	0	0	0.1	0.000000000000000E+000	1.20479e-05
1	1	0	1	17840	0.1	0.120259	0.0998248	0.000277304	0.494688	0.494688	0	6.26447e-05	0.000000000000000E+000	1.8397e+06	0.000000000000000E+000	0.000000000000000E+000	0.494688	0.494688	0	0	0.1	0.000000000000000E+000	1.20048e-05