File: Python Codes/Alyssa_Old_Files/Functions.py/EIS Results/LL GPE/2023/0523/FullCell_EMD_ZnAnode_NoCalendar_EIS_RT_C01.mpt
EC-Lab ASCII FILE
Nb header lines : 62

Potentio Electrochemical Impedance Spectroscopy

Run on channel : 1 (SN 35512)
User :
CE vs. WE compliance from -10 V to 10 V
Electrode connection : standard
Ewe ctrl range : min = -5.00 V, max = 5.00 V
Safety Limits :
	Do not start on E overload
Acquisition started on : 05/22/2023 16:34:29
Technique started on : 05/22/2023 16:34:31
Saved on :
	File : FullCell_EMD_ZnAnode_NoCalendar_EIS_RT_C01.mpr
	Directory : C:\Users\CESL\Documents\EC-Lab\Data\PhD\Leifer\Results\Zn Ion GPE\2023\0523\
	Host : 10.110.196.171
Device : VSP (SN 1724)
Address : USB
EC-Lab for windows v11.16 (software)
Internet server v11.16 (firmware)
Command interpretor v11.16 (firmware)
Electrode material : Au/Pd
Initial state :
Electrolyte : NaCl (0.2M)
Comments : Fe(CN)63-/Fe(CN)64- 5.10-3 M
Reference electrode : SCE Saturated Calomel Electrode (0.241 V)
Electrode surface area : 0.001 cm²
Characteristic mass : 0.001 g
Equivalent Weight : 0.000 g/eq.
Density : 0.000 g/cm3
Cycle Definition : Charge/Discharge alternance
Mode                Single sine
E (V)               0.0000
vs.                 Eoc
tE (h:m:s)          0:00:0.0000
record              0
dI                  0.000
unit dI             mA
dt (s)              0.000
fi                  1.000
unit fi             MHz
ff                  10.000
unit ff             mHz
Nd                  6
Points              per decade
spacing             Logarithmic
Va (mV)             10.0
pw                  0.10
Na                  2
corr                1
E range min (V)     -5.000
E range max (V)     5.000
I Range             Auto
Bandwidth           5
nc cycles           0
goto Ns'            0
nr cycles           0
inc. cycle          0

freq/Hz	Re(Z)/Ohm	-Im(Z)/Ohm	|Z|/Ohm	Phase(Z)/deg	time/s	<Ewe>/V	<I>/mA	Cs/µF	Cp/µF	cycle number	I Range	|Ewe|/V	|I|/A	Re(Y)/Ohm-1	Im(Y)/Ohm-1	|Y|/Ohm-1	Phase(Y)/deg
1.00002e+06	-20.6253	6.72776	21.6948	-161.934	2.30609	-1.19148	-0.00365717	0.023656	0.00227494	1	10	0.000172274	7.94077e-06	-0.0438215	0.0142941	0.0460939	161.934
675752	16.3112	-5.56515	17.2344	18.8389	2.7151	-1.19206	0.00075293	-0.042321	-0.00441281	1	10	0.000900393	5.22438e-05	0.054915	-0.0187362	0.0580233	-18.8389
456640	9.2581	-2.05387	9.48318	12.5083	3.12409	-1.19195	0.00185313	-0.169696	-0.00795996	1	10	0.00327483	0.00034533	0.102947	-0.0228384	0.10545	-12.5083
308574	7.80801	-0.920116	7.86204	6.72089	3.53308	-1.19216	0.00299996	-0.560555	-0.00767773	1	10	0.00879761	0.001119	0.126319	-0.0148858	0.127194	-6.72089
208525	7.30401	-0.323301	7.31116	2.53446	4.07409	-1.19221	0.0043407	-2.36077	-0.00461632	1	10	0.0100833	0.00137917	0.136643	-0.00604832	0.136777	-2.53446
140908	7.14999	0.125394	7.15109	-1.00473	4.61509	-1.19221	0.00464465	9.00757	0.00276959	1	10	0.0101607	0.00142087	0.139817	0.00245206	0.139839	1.00473
95214.8	7.14745	0.519746	7.16632	-4.1591	5.15608	-1.19218	0.00638818	3.21606	0.0169166	1	10	0.0101149	0.00141145	0.139174	0.0101204	0.139542	4.1591
64345.7	7.23798	0.916658	7.29579	-7.21783	5.56409	-1.19219	0.00438173	2.69832	0.0425954	1	10	0.0107095	0.0014679	0.135979	0.0172212	0.137065	7.21783
43476.5	7.38633	1.35116	7.50889	-10.3663	5.97309	-1.19219	0.00495979	2.70931	0.0877241	1	10	0.0106177	0.00141401	0.131002	0.0239637	0.133175	10.3663
29384.8	7.57608	1.88323	7.80664	-13.9594	6.38209	-1.19218	0.0059164	2.87604	0.167368	1	10	0.0103644	0.00132764	0.124313	0.0309012	0.128096	13.9594
19853.5	7.78376	2.56837	8.19655	-18.2611	6.79109	-1.19218	0.00635647	3.12122	0.306464	1	10	0.010341	0.00126163	0.115858	0.0382293	0.122003	18.2611
13418	8.04872	3.51135	8.78131	-23.5698	7.20009	-1.19218	0.00550802	3.378	0.540118	1	10	0.0101463	0.00115544	0.104378	0.0455361	0.113878	23.5698
9082.03	8.3705	4.83015	9.66414	-29.9869	7.49735	-1.19217	0.00721984	3.62808	0.906299	1	10	0.0104732	0.00108372	0.0896241	0.0517171	0.103475	29.9869
6140.96	8.7618	6.70719	11.0343	-37.4342	7.90065	-1.19217	0.00689351	3.86405	1.4277	1	10	0.0104186	0.000944203	0.0719622	0.0550873	0.0906266	37.4342
4141.32	9.30987	9.4101	13.2372	-45.3068	8.36671	-1.19213	0.0112756	4.08401	2.06387	1	10	0.0102583	0.000774961	0.0531314	0.0537034	0.0755447	45.3068
2797.31	10.0479	13.239	16.6202	-52.803	8.83296	-1.19213	0.0106062	4.29757	2.72685	1	10	0.0100879	0.000606967	0.0363749	0.0479273	0.0601677	52.803
1890.6	11.0908	18.6096	21.6639	-59.2062	9.29771	-1.19213	0.0110463	4.52357	3.33798	1	10	0.00996217	0.000459851	0.0236314	0.0396519	0.0461597	59.2062
1287.12	12.6571	26.1344	29.038	-64.1586	9.76422	-1.19213	0.0110556	4.73141	3.83248	1	10	0.00990404	0.000341071	0.0150107	0.030994	0.0344376	64.1586
863.066	15.0806	37.2555	40.192	-67.9624	10.4832	-1.19216	0.00116201	4.94977	4.25291	1	11	0.0101773	0.000253216	0.00933554	0.0230627	0.0248806	67.9624
583.692	18.7075	52.4697	55.7049	-70.3768	10.9502	-1.19215	0.00109116	5.1967	4.6106	1	11	0.0100003	0.000179522	0.00602879	0.0169091	0.0179517	70.3768
394.117	24.1051	73.6527	77.497	-71.8777	11.4172	-1.19216	0.00121439	5.48285	4.95238	1	11	0.00990775	0.000127847	0.00401365	0.0122636	0.0129037	71.8777
266.449	32.1915	102.804	107.726	-72.6129	11.8807	-1.19215	0.00106916	5.81025	5.29141	1	11	0.00987326	9.16513e-05	0.00277394	0.00885863	0.00928278	72.6129
180.058	44.3157	142.653	149.378	-72.7424	12.3457	-1.19215	0.00116536	6.19623	5.65089	1	11	0.00984281	6.58919e-05	0.00198602	0.00639305	0.00669442	72.7424
121.595	62.3335	197.539	207.141	-72.4869	12.8061	-1.19216	0.00108668	6.62598	6.02596	1	11	0.00983357	4.74729e-05	0.00145275	0.00460387	0.00482764	72.4869
82.2368	89.7906	272.625	287.031	-71.7704	13.5073	-1.19215	0.00078729	7.09886	6.40416	1	12	0.00986755	3.4378e-05	0.00108987	0.00330909	0.00348395	71.7704
55.5152	128.952	373.345	394.987	-70.9453	13.9699	-1.19215	0.000746111	7.67889	6.86045	1	12	0.00984788	2.49321e-05	0.000826534	0.00239301	0.00253173	70.9453
37.5601	190.062	509.904	544.175	-69.5575	14.4617	-1.19214	0.000805408	8.31007	7.29635	1	12	0.00983432	1.8072e-05	0.000641829	0.00172192	0.00183765	69.5575
25.3653	285.257	687.481	744.312	-67.465	14.9209	-1.19215	0.000712018	9.12684	7.7863	1	12	0.00982815	1.32043e-05	0.000514903	0.00124094	0.00134352	67.465
17.1327	419.564	914.968	1006.58	-65.3659	15.3338	-1.19215	0.000610208	10.1529	8.38891	1	12	0.00982508	9.76087e-06	0.000414098	0.000903047	0.000993465	65.3659
11.5912	638.965	1186.74	1347.82	-61.7011	15.9693	-1.19215	0.000773444	11.57	8.96974	1	13	0.00983193	7.29467e-06	0.000351731	0.000653265	0.000741937	61.7011
7.82815	950.106	1500.03	1775.61	-57.6502	16.5513	-1.19216	0.000747264	13.5538	9.67309	1	13	0.0098285	5.53527e-06	0.000301353	0.000475778	0.000563186	57.6502
5.29302	1385.36	1824.58	2290.93	-52.7915	17.3877	-1.19215	0.000814327	16.4798	10.4534	1	13	0.00982688	4.28948e-06	0.000263962	0.00034765	0.000436505	52.7915
3.57551	1964.63	2035.86	2829.22	-46.0201	18.6033	-1.19215	0.000184698	21.8642	11.3213	1	13	0.00982684	3.47334e-06	0.000245441	0.00025434	0.000353454	46.0201
2.41723	2640.97	2288.43	3494.52	-40.9093	20.3806	-1.19214	0.000722729	28.7716	12.3386	1	13	0.00982726	2.81219e-06	0.000216267	0.000187397	0.000286162	40.9093
1.63271	3283.42	2381.44	4056.12	-35.9531	24.2645	-1.19214	0.000960539	40.9328	14.1101	1	14	0.00982717	2.4228e-06	0.000199574	0.00014475	0.000246541	35.9531
1.10206	3985.1	2325.63	4614.06	-30.267	28.1134	-1.19214	0.00102192	62.0975	15.7757	1	14	0.00982496	2.12935e-06	0.000187185	0.000109238	0.000216729	30.267
0.745609	4576.97	2290.09	5117.93	-26.5811	33.7852	-1.19214	0.00113603	93.2086	18.6626	1	14	0.00982515	1.91975e-06	0.000174739	8.74308e-05	0.000195392	26.5811
0.503902	5143.6	2235.13	5608.25	-23.4871	42.161	-1.19214	0.00128	141.31	22.4451	1	14	0.00982562	1.75199e-06	0.000163536	7.10637e-05	0.000178309	23.4871
0.340103	5669.22	2101.98	6046.35	-20.3433	54.5544	-1.19214	0.00139592	222.629	26.9061	1	14	0.00982572	1.62507e-06	0.000155073	5.74964e-05	0.000165389	20.3433
0.230213	5986.65	2094.28	6342.4	-19.2811	72.8477	-1.19214	0.00152371	330.108	35.9931	1	14	0.00982236	1.54868e-06	0.000148825	5.20628e-05	0.000157669	19.2811
0.155473	6449.36	2163.86	6802.69	-18.5474	99.9189	-1.19214	0.00166823	473.084	47.8667	1	14	0.00982208	1.44385e-06	0.000139366	4.67592e-05	0.000147001	18.5474
0.105049	6856.57	2091.49	7168.47	-16.9635	139.968	-1.19214	0.00177883	724.388	61.664	1	14	0.00982031	1.36993e-06	0.00013343	4.07009e-05	0.0001395	16.9635
0.0710227	7250.1	2412.53	7640.96	-18.4053	199.189	-1.19213	0.00179728	928.861	92.5975	1	14	0.00982122	1.28534e-06	0.000124179	4.13215e-05	0.000130874	18.4053
0.0479883	7729.22	2419.69	8099.12	-17.3831	286.82	-1.19214	0.00150243	1370.64	122.34	1	14	0.00982199	1.21272e-06	0.000117831	3.68879e-05	0.00012347	17.3831
0.0324439	8612.72	3086.73	9149.14	-19.7173	416.42	-1.19214	0.00140143	1589.24	180.894	1	14	0.00982073	1.0734e-06	0.000102892	3.68755e-05	0.0001093	19.7173
0.0219206	9184.37	3755.74	9922.61	-22.241	608.221	-1.19214	0.00127374	1933.18	276.957	1	14	0.00981996	9.89655e-07	9.32819e-05	3.81455e-05	0.00010078	22.241
0.0148076	9946.41	4773.42	11032.5	-25.637	892.139	-1.19214	0.00108347	2251.67	421.517	1	14	0.00982186	8.90264e-07	8.17178e-05	3.92175e-05	9.06411e-05	25.637
0.0100006	10944.6	6239.51	12598.2	-29.6874	1312.51	-1.19214	0.00101132	2550.6	625.638	1	14	0.00982236	7.79661e-07	6.89572e-05	3.93125e-05	7.93761e-05	29.6874