File: Python Codes/Alyssa_Old_Files/Functions.py/EIS Results/LL GPE/2023/0523/FullCell_EMD_ZnAnode_Calendar_60C_EIS_RT_C01.mpt
EC-Lab ASCII FILE
Nb header lines : 62

Potentio Electrochemical Impedance Spectroscopy

Run on channel : 1 (SN 35512)
User :
CE vs. WE compliance from -10 V to 10 V
Electrode connection : standard
Ewe ctrl range : min = -5.00 V, max = 5.00 V
Safety Limits :
	Do not start on E overload
Acquisition started on : 05/22/2023 17:56:12
Technique started on : 05/22/2023 17:56:13
Saved on :
	File : FullCell_EMD_ZnAnode_Calendar_60C_EIS_RT_C01.mpr
	Directory : C:\Users\CESL\Documents\EC-Lab\Data\PhD\Leifer\Results\Zn Ion GPE\2023\0523\
	Host : 10.110.196.171
Device : VSP (SN 1724)
Address : USB
EC-Lab for windows v11.16 (software)
Internet server v11.16 (firmware)
Command interpretor v11.16 (firmware)
Electrode material : Au/Pd
Initial state :
Electrolyte : NaCl (0.2M)
Comments : Fe(CN)63-/Fe(CN)64- 5.10-3 M
Reference electrode : SCE Saturated Calomel Electrode (0.241 V)
Electrode surface area : 0.001 cm²
Characteristic mass : 0.001 g
Equivalent Weight : 0.000 g/eq.
Density : 0.000 g/cm3
Cycle Definition : Charge/Discharge alternance
Mode                Single sine
E (V)               0.0000
vs.                 Eoc
tE (h:m:s)          0:00:0.0000
record              0
dI                  0.000
unit dI             mA
dt (s)              0.000
fi                  1.000
unit fi             MHz
ff                  10.000
unit ff             mHz
Nd                  6
Points              per decade
spacing             Logarithmic
Va (mV)             10.0
pw                  0.10
Na                  2
corr                1
E range min (V)     -5.000
E range max (V)     5.000
I Range             Auto
Bandwidth           5
nc cycles           0
goto Ns'            0
nr cycles           0
inc. cycle          0

freq/Hz	Re(Z)/Ohm	-Im(Z)/Ohm	|Z|/Ohm	Phase(Z)/deg	time/s	<Ewe>/V	<I>/mA	Cs/µF	Cp/µF	cycle number	I Range	|Ewe|/V	|I|/A	Re(Y)/Ohm-1	Im(Y)/Ohm-1	|Y|/Ohm-1	Phase(Y)/deg
1.00002e+06	0.66831	4.06579	4.12035	-80.6655	1.9751	0.723984	0.0493893	0.0391442	0.0381144	1	9	0.000114757	2.78512e-05	0.039365	0.239484	0.242698	80.6655
675752	9.53136	-5.54263	11.0258	30.1786	2.6781	0.723544	-0.00260172	-0.042493	-0.0107382	1	10	0.000577494	5.23767e-05	0.0784038	-0.045593	0.0906966	-30.1786
456640	5.64378	-2.11118	6.02572	20.5094	3.08708	0.723649	-0.00157052	-0.16509	-0.0202653	1	10	0.00210075	0.00034863	0.155436	-0.0581443	0.165955	-20.5094
308574	4.81911	-1.03111	4.92819	12.0771	3.49609	0.723465	-0.000322994	-0.500212	-0.0218974	1	10	0.00556371	0.00112896	0.198423	-0.0424553	0.202914	-12.0771
208525	4.51367	-0.446052	4.53566	5.64379	3.9051	0.723405	-0.000280072	-1.7111	-0.0165488	1	10	0.010302	0.00227133	0.219406	-0.0216823	0.220475	-5.64379
140908	4.41026	-0.0210628	4.41031	0.273634	4.4461	0.723431	0.00348109	-53.6251	-0.0012231	1	10	0.0100999	0.00229006	0.226739	-0.00108287	0.226741	-0.273634
95214.8	4.41126	0.360873	4.42599	-4.6768	4.98708	0.72343	0.00417478	4.63192	0.0307928	1	10	0.010133	0.00228942	0.225186	0.0184218	0.225938	4.6768
64345.7	4.47801	0.75874	4.54183	-9.61669	5.3961	0.723439	0.00391184	3.25993	0.090977	1	10	0.0108022	0.00237839	0.217081	0.0367816	0.220175	9.61669
43476.5	4.62162	1.20288	4.77559	-14.5889	5.80509	0.723434	0.0039305	3.04328	0.193078	1	10	0.0107624	0.00225363	0.202647	0.0527435	0.209398	14.5889
29384.8	4.85508	1.71958	5.1506	-19.5032	6.21408	0.723442	0.00338785	3.14975	0.351077	1	10	0.0107226	0.00208181	0.183012	0.0648194	0.194152	19.5032
19853.5	5.16765	2.32499	5.66658	-24.2235	6.62309	0.723439	0.00260839	3.44796	0.580445	1	10	0.0104455	0.00184335	0.160935	0.0724066	0.176473	24.2235
13418	5.5392	3.07569	6.33582	-29.0417	7.03209	0.723439	0.00426053	3.85647	0.908806	1	10	0.0102719	0.00162124	0.137988	0.0766192	0.157833	29.0417
9082.03	5.99822	4.0352	7.22921	-33.93	7.32933	0.72345	0.00629494	4.34283	1.35307	1	10	0.0106043	0.00146687	0.114773	0.0772117	0.138328	33.93
6140.96	6.50115	5.34139	8.414	-39.4068	7.73264	0.723453	0.00727392	4.8521	1.95539	1	10	0.0104021	0.00123629	0.0918301	0.0754483	0.11885	39.4068
4141.32	7.10472	7.14245	10.0743	-45.1517	8.19969	0.723481	0.0123199	5.38064	2.70457	1	10	0.0101305	0.00100558	0.070003	0.0703748	0.0992625	45.1517
2797.31	7.77811	9.65601	12.3991	-51.1478	8.66594	0.723484	0.0120887	5.89225	3.57352	1	10	0.00991026	0.000799273	0.0505935	0.0628084	0.0806511	51.1478
1890.6	8.60126	13.2712	15.8148	-57.0522	9.12968	0.723484	0.0120364	6.34321	4.46688	1	10	0.00977082	0.000617829	0.0343904	0.0530622	0.063232	57.0522
1287.12	9.59428	18.3226	20.6825	-62.362	9.59619	0.72348	0.0121073	6.74863	5.29641	1	10	0.00968089	0.000468071	0.0224287	0.0428331	0.04835	62.362
863.066	11.0037	25.9116	28.1512	-66.9908	10.0632	0.723487	0.0119506	7.11675	6.02941	1	10	0.00962284	0.000341826	0.013885	0.0326963	0.0355224	66.9908
583.692	13.0938	36.7422	39.0056	-70.3856	10.7822	0.723464	-0.000286958	7.42114	6.58487	1	11	0.00981526	0.000251637	0.00860618	0.0241497	0.0256373	70.3856
394.117	16.2204	52.0592	54.5276	-72.6942	11.2492	0.72347	-0.000360787	7.75706	7.07065	1	11	0.00969124	0.000177731	0.00545541	0.0175091	0.0183393	72.6942
266.449	20.9982	73.4956	76.4364	-74.055	11.7127	0.723465	-0.000396398	8.12726	7.51391	1	11	0.00962048	0.000125863	0.00359403	0.0125794	0.0130828	74.055
180.058	28.513	103.507	107.363	-74.5988	12.1777	0.723467	-0.000510496	8.53959	7.93729	1	11	0.00959623	8.93812e-05	0.00247363	0.00897973	0.0093142	74.5988
121.595	39.9032	145.309	150.688	-74.6446	12.6381	0.723461	-0.000536971	9.00765	8.37601	1	11	0.00958042	6.35778e-05	0.00175731	0.00639932	0.00663622	74.6446
82.2368	57.9353	202.564	210.686	-74.0389	13.0933	0.723473	-0.000671949	9.55416	8.83171	1	11	0.00957215	4.54333e-05	0.00130519	0.00456342	0.0047464	74.0389
55.5152	86.4246	281.986	294.933	-72.9605	13.8059	0.723476	-0.00110347	10.1667	9.29372	1	12	0.00959974	3.25489e-05	0.000993551	0.00324176	0.0033906	72.9605
37.5601	130.192	388.145	409.398	-71.4575	14.2977	0.723481	-0.00112444	10.9169	9.81288	1	12	0.00958473	2.34118e-05	0.000776769	0.00231581	0.00244261	71.4575
25.3653	200.596	529.128	565.876	-69.2379	14.7569	0.723469	-0.00110416	11.8582	10.3681	1	12	0.00957573	1.6922e-05	0.000626441	0.00165241	0.00176717	69.2379
17.1327	312.701	706.079	772.224	-66.1129	15.1698	0.723465	-0.00135629	13.1565	10.9992	1	12	0.00957395	1.23979e-05	0.000524376	0.00118404	0.00129496	66.1129
11.5912	473.098	934.758	1047.66	-63.1552	15.5793	0.723461	-0.00129508	14.689	11.6936	1	12	0.00956345	9.12839e-06	0.000431032	0.000851643	0.000954507	63.1552
7.82815	727.102	1179.92	1385.96	-58.3573	16.4683	0.723471	-0.00124959	17.231	12.4885	1	13	0.00957634	6.90954e-06	0.000378525	0.000614258	0.000721522	58.3573
5.29302	1086.23	1439.59	1803.42	-52.9638	17.3047	0.723472	-0.00126083	20.8871	13.3095	1	13	0.00957171	5.30753e-06	0.000333987	0.000442634	0.000554502	52.9638
3.57551	1554.2	1650.52	2267.1	-46.7216	18.5203	0.723478	-0.00128453	26.9687	14.2942	1	13	0.00957055	4.22149e-06	0.000302387	0.000321128	0.000441091	46.7216
2.41723	2117.49	1770.95	2760.44	-39.9073	20.2975	0.72348	-0.00132099	37.1787	15.3021	1	13	0.0095722	3.46763e-06	0.000277884	0.000232408	0.000362261	39.9073
1.63271	2708.95	1759.28	3230.09	-33.001	22.9083	0.72348	-0.00135245	55.4087	16.4368	1	13	0.00957077	2.96301e-06	0.000259641	0.000168619	0.000309589	33.001
1.10206	3248.51	1642.41	3640.1	-26.8206	28.6217	0.723478	-0.00140432	87.9294	17.9007	1	14	0.00957124	2.62939e-06	0.000245165	0.000123952	0.000274718	26.8206
0.745609	3695.32	1451.24	3970.07	-21.4411	34.2934	0.723474	-0.0014414	147.085	19.654	1	14	0.00957005	2.41055e-06	0.000234453	9.20752e-05	0.000251885	21.4411
0.503902	4050.13	1266.73	4243.61	-17.3678	42.6692	0.723477	-0.00147925	249.338	22.2172	1	14	0.0095712	2.25544e-06	0.000224905	7.0342e-05	0.000235649	17.3678
0.340103	4348.45	1142.4	4496.01	-14.7198	55.0627	0.723477	-0.00150108	409.63	26.4469	1	14	0.00956982	2.12852e-06	0.00021512	5.6515e-05	0.00022242	14.7198
0.230213	4612.05	1104.86	4742.55	-13.4719	73.356	0.723469	-0.00151373	625.723	33.9607	1	14	0.00956911	2.01771e-06	0.000205055	4.9123e-05	0.000210857	13.4719
0.155473	4892.79	1154.19	5027.08	-13.2732	100.427	0.723472	-0.00152331	886.926	46.7534	1	14	0.00956927	1.90354e-06	0.000193609	4.56717e-05	0.000198923	13.2732
0.105049	5211.76	1335.69	5380.2	-14.3746	140.477	0.723473	-0.00153374	1134.29	69.9095	1	14	0.00956858	1.77848e-06	0.000180048	4.61432e-05	0.000185867	14.3746
0.0710227	5589.46	1665.91	5832.43	-16.5964	199.697	0.723474	-0.00151617	1345.15	109.743	1	14	0.00956898	1.64065e-06	0.000164312	4.89725e-05	0.000171455	16.5964
0.0479883	6076.89	2191.11	6459.85	-19.8275	287.328	0.723474	-0.001494	1513.63	174.142	1	14	0.00956947	1.48138e-06	0.000145626	5.25073e-05	0.000154802	19.8275
0.0324439	6653.93	2989.16	7294.51	-24.1912	416.928	0.723468	-0.00144594	1641.11	275.577	1	14	0.0095677	1.31163e-06	0.000125051	5.61768e-05	0.000137089	24.1912
0.0219206	7377.15	4190.46	8484.24	-29.598	608.729	0.723472	-0.00139492	1732.63	422.672	1	14	0.00956623	1.12753e-06	0.000102486	5.82151e-05	0.000117866	29.598
0.0148076	8221.46	5941.26	10143.5	-35.8539	892.647	0.72347	-0.00133568	1809.08	620.635	1	14	0.00956715	9.43179e-07	7.99046e-05	5.77433e-05	9.85852e-05	35.8539
0.0100006	9468.7	8276.94	12576.3	-41.1579	1313.02	0.72347	-0.00127057	1922.75	832.827	1	14	0.00956642	7.60669e-07	5.98663e-05	5.23314e-05	7.95145e-05	41.1579