File: Python_Codes/EIS_Processing/0720_05_Plotting/0919_01_0.5MTFSI_ZnSym_InsideGB_0hr_RT_Tranference_01_PEIS_C05.mpt
EC-Lab ASCII FILE
Nb header lines : 62

Potentio Electrochemical Impedance Spectroscopy

Run on channel : 5 (SN 35518)
User :
CE vs. WE compliance from -10 V to 10 V
Electrode connection : standard
Ewe ctrl range : min = -2.50 V, max = 2.50 V
Safety Limits :
	Do not start on E overload
Acquisition started on : 09/21/2023 11:07:44
Technique started on : 09/21/2023 11:07:45
Saved on :
	File : 0919_01_0.5MTFSI_ZnSym_InsideGB_0hr_RT_Tranference_01_PEIS_C05.mpr
	Directory : C:\Users\CESL\Documents\EC-Lab\Data\PhD\Leifer\Results\Zn Ion GPE\2023\0919\
	Host : 10.110.196.171
Device : VSP (SN 1724172417241724)
Address : USB
EC-Lab for windows v11.16 (software)
Internet server v11.16 (firmware)
Command interpretor v11.16 (firmware)
Electrode material : Au/Pd
Initial state :
Electrolyte : NaCl (0.2M)
Comments : Fe(CN)63-/Fe(CN)64- 5.10-3 M
Reference electrode : SCE Saturated Calomel Electrode (0.241 V)
Electrode surface area : 0.001 cm²
Characteristic mass : 0.001 g
Equivalent Weight : 0.000 g/eq.
Density : 0.000 g/cm3
Cycle Definition : Charge/Discharge alternance
Mode                Single sine
E (V)               0.0000
vs.                 Eoc
tE (h:m:s)          0:00:0.0000
record              0
dI                  0.000
unit dI             mA
dt (s)              0.000
fi                  1.000
unit fi             MHz
ff                  10.000
unit ff             mHz
Nd                  6
Points              per decade
spacing             Logarithmic
Va (mV)             10.0
pw                  0.10
Na                  2
corr                1
E range min (V)     -2.500
E range max (V)     2.500
I Range             Auto
Bandwidth           5
nc cycles           0
goto Ns'            0
nr cycles           0
inc. cycle          0

freq/Hz	Re(Z)/Ohm	-Im(Z)/Ohm	|Z|/Ohm	Phase(Z)/deg	time/s	<Ewe>/V	<I>/mA	Cs/µF	Cp/µF	cycle number	I Range	|Ewe|/V	|I|/A	Re(Y)/Ohm-1	Im(Y)/Ohm-1	|Y|/Ohm-1	Phase(Y)/deg
1.00002e+06	0.0937918	4.83103	4.83194	-88.8878	1.9741	-0.0163923	0.054986	0.0329436	0.0329312	1	9	0.000184995	3.82859e-05	0.00401719	0.206917	0.206956	88.8878
675752	-560.764	374.03	674.058	-146.297	3.26509	-0.0165985	-0.000842325	0.000629689	0.000193885	1	12	0.000326199	4.83933e-07	-0.0012342	0.000823213	0.00148355	146.297
456640	29.6687	-5.29416	30.1373	10.1175	4.13009	-0.0164751	0.00556748	-0.0658338	-0.00203158	1	10	0.00652106	0.000216378	0.0326655	-0.00582892	0.0331815	-10.1175
308574	20.2222	-2.30129	20.3527	6.49233	4.5391	-0.0166237	0.00462534	-0.224125	-0.0028654	1	10	0.0106198	0.000521787	0.0488183	-0.00555552	0.0491334	-6.49233
208525	17.6674	-1.27366	17.7133	4.12337	5.08009	-0.0165838	0.00449288	-0.599249	-0.00309826	1	10	0.0101476	0.000572881	0.0563088	-0.00405935	0.0564549	-4.12337
140908	16.6847	-0.709102	16.6998	2.43361	5.62108	-0.0165507	0.00594992	-1.59285	-0.00287192	1	10	0.0101296	0.00060657	0.0598271	-0.00254266	0.0598811	-2.43361
95214.8	16.303	-0.358055	16.3069	1.25815	6.03008	-0.016531	0.00617566	-4.66838	-0.00225071	1	10	0.0107522	0.000659363	0.0613088	-0.00134649	0.0613236	-1.25815
64345.7	16.1597	-0.112073	16.16	0.39736	6.43909	-0.0165387	0.00566262	-22.0699	-0.00106149	1	10	0.0105943	0.000655585	0.0618795	-0.000429156	0.061881	-0.39736
43476.5	16.1307	0.124732	16.1312	-0.443034	6.84808	-0.0165303	0.00615887	29.3486	0.00175472	1	10	0.010366	0.000642607	0.0619897	0.000479339	0.0619916	0.443034
29384.8	16.1298	0.29721	16.1325	-1.05563	7.25609	-0.016545	0.00588463	18.2236	0.00618528	1	10	0.0102271	0.000633944	0.0619762	0.00114199	0.0619867	1.05563
19853.5	16.137	0.500097	16.1448	-1.77507	7.66509	-0.016525	0.00597044	16.0298	0.0153806	1	10	0.0101292	0.000627398	0.0619099	0.00191863	0.0619396	1.77507
13418	16.2409	0.720699	16.2569	-2.54086	7.94209	-0.0165403	0.0057559	16.4581	0.0323453	1	10	0.0107053	0.000658508	0.0614518	0.00272695	0.0615123	2.54086
9082.03	16.3365	1.01469	16.3679	-3.5542	8.23933	-0.0165288	0.00564583	17.2704	0.0663718	1	10	0.010996	0.000671802	0.0609775	0.00378745	0.061095	3.5542
6140.96	16.4587	1.41292	16.5192	-4.90662	8.83265	-0.0165153	0.00487533	18.3428	0.134191	1	10	0.0101641	0.000615287	0.0603138	0.00517774	0.0605356	4.90662
4141.32	16.6322	1.92195	16.7429	-6.59165	9.2987	-0.0165028	0.00591634	19.9958	0.26349	1	10	0.0102128	0.000609979	0.0593321	0.0068562	0.0597269	6.59165
2797.31	16.8732	2.63047	17.0771	-8.86085	9.76495	-0.0165141	0.00607305	21.6295	0.513199	1	10	0.0102415	0.000599723	0.0578592	0.00902001	0.0585581	8.86085
1890.6	17.1784	3.61928	17.5555	-11.8975	10.2297	-0.0165069	0.00623536	23.2594	0.988582	1	10	0.0102407	0.000583334	0.0557384	0.0117434	0.0569621	11.8975
1287.12	17.5745	4.95561	18.2598	-15.7472	10.6962	-0.0165127	0.00584172	24.952	1.83783	1	10	0.0102362	0.000560587	0.0527096	0.0148629	0.0547651	15.7472
863.066	18.217	6.85227	19.4631	-20.6137	11.1632	-0.0165116	0.00542755	26.9117	3.3357	1	10	0.0102371	0.000525973	0.0480898	0.0180889	0.0513793	20.6137
583.692	19.0865	9.37842	21.2662	-26.1678	11.6302	-0.0165132	0.00597977	29.0741	5.6544	1	10	0.0102271	0.000480909	0.0422034	0.0207372	0.047023	26.1678
394.117	20.354	12.8996	24.0974	-32.365	12.0972	-0.0165161	0.00564956	31.3054	8.97079	1	10	0.0102165	0.000423968	0.0350517	0.0222145	0.0414983	32.365
266.449	22.373	17.6566	28.501	-38.2802	12.8126	-0.016519	-0.000407746	33.8297	12.9835	1	11	0.0103037	0.00036152	0.0275426	0.0217364	0.0350865	38.2802
180.058	25.312	23.9379	34.8385	-43.4018	13.2777	-0.0165211	-0.000441501	36.9251	17.4331	1	11	0.010266	0.000294674	0.0208549	0.0197227	0.0287038	43.4018
121.595	29.7808	32.0961	43.7842	-47.1429	13.7381	-0.0165222	-0.000367474	40.7804	21.914	1	11	0.0102414	0.000233906	0.0155347	0.0167424	0.0228393	47.1429
82.2368	36.4388	42.3531	55.871	-49.2927	14.1933	-0.0165264	-0.00028431	45.695	26.2583	1	11	0.0102291	0.000183084	0.0116732	0.0135679	0.0178984	49.2927
55.5152	46.1519	54.7809	71.6306	-49.8865	14.6559	-0.0165238	-0.000487748	52.3334	30.6084	1	11	0.0102155	0.000142614	0.00899482	0.0106766	0.0139605	49.8865
37.5601	59.5505	68.9968	91.1418	-49.2028	15.1478	-0.0165238	-0.000773044	61.4136	35.1955	1	11	0.010208	0.000112001	0.00716887	0.00830604	0.0109719	49.2028
25.3653	77.9696	84.2295	114.778	-47.2102	15.6069	-0.0165215	-0.000557861	74.4932	40.1173	1	11	0.0102081	8.8938e-05	0.0059185	0.00639368	0.00871251	47.2102
17.1327	101.788	100.139	142.789	-44.5322	16.2478	-0.0165235	-0.00118394	92.7664	45.6258	1	12	0.0102236	7.15994e-05	0.00499238	0.00491151	0.00700335	44.5322
11.5912	129.7	113.787	172.539	-41.2608	16.6573	-0.0165243	-0.0013554	120.669	52.4818	1	12	0.0102111	5.91816e-05	0.00435678	0.00382225	0.00579578	41.2608
7.82815	162.066	125.791	205.156	-37.8175	17.2393	-0.016523	-0.00127212	161.626	60.7635	1	12	0.0102079	4.97569e-05	0.00385058	0.00298869	0.00487435	37.8175
5.29302	197.381	134.37	238.777	-34.2457	18.0757	-0.0165201	-0.00143777	223.776	70.8652	1	12	0.0102052	4.27396e-05	0.00346193	0.00235677	0.004188	34.2457
3.57551	234.47	140.541	273.365	-30.9384	19.2913	-0.0165193	-0.00154098	316.722	83.7145	1	12	0.0102038	3.73268e-05	0.00313764	0.0018807	0.00365812	30.9384
2.41723	271.611	142.645	306.791	-27.7076	21.0686	-0.0165193	-0.0017321	461.577	99.7873	1	12	0.0102071	3.32705e-05	0.00288578	0.00151556	0.00325955	27.7076
1.63271	306.981	143.53	338.877	-25.0586	23.6795	-0.0165219	-0.00188897	679.158	121.834	1	12	0.0102063	3.0118e-05	0.00267317	0.00124985	0.00295092	25.0586
1.10206	343.072	141.498	371.106	-22.4134	29.3925	-0.0165184	-0.00227631	1020.62	148.378	1	13	0.0102066	2.75032e-05	0.00249108	0.00102743	0.00269464	22.4134
0.745609	378.147	139.572	403.082	-20.2588	35.0632	-0.0165167	-0.00260779	1529.37	183.366	1	13	0.0102056	2.5319e-05	0.00232741	0.000859034	0.00248088	20.2588
0.503902	412.944	136.998	435.076	-18.3538	43.4391	-0.0165195	-0.00300959	2305.47	228.591	1	13	0.0102029	2.34509e-05	0.00218153	0.000723744	0.00229845	18.3538
0.340103	445.099	133.085	464.57	-16.6467	55.8325	-0.0165118	-0.00353731	3516.26	288.561	1	13	0.0102051	2.19668e-05	0.00206232	0.000616633	0.00215253	16.6467
0.230213	479.031	126.878	495.549	-14.835	74.1259	-0.0165121	-0.00423146	5448.84	357.194	1	13	0.0102048	2.0593e-05	0.0019507	0.000516671	0.00201797	14.835
0.155473	514.623	119.199	528.247	-13.0411	101.197	-0.0165104	-0.00510349	8588.02	437.285	1	13	0.0102047	1.93181e-05	0.00184423	0.000427167	0.00189305	13.0411
0.105049	552.044	111.247	563.142	-11.3935	141.247	-0.016509	-0.00615296	13618.8	531.471	1	13	0.0102055	1.81224e-05	0.00174076	0.000350794	0.00177575	11.3935
0.0710227	586.814	102.35	595.672	-9.89382	200.468	-0.0164982	-0.00731317	21894.5	646.392	1	13	0.0102032	1.71289e-05	0.00165381	0.000288452	0.00167877	9.89382
0.0479883	619.436	88.1973	625.684	-8.10348	288.099	-0.0165065	-0.00853064	37603.6	747.188	1	13	0.0102049	1.631e-05	0.00158229	0.000225292	0.00159825	8.10348
0.0324439	656.763	69.2874	660.408	-6.02232	417.699	-0.0165015	-0.00960352	70799.9	779.32	1	13	0.0102042	1.54514e-05	0.00150586	0.000158865	0.00151421	6.02232
0.0219206	704.877	54.763	707.001	-4.44247	609.501	-0.0165169	-0.0102567	132581	795.454	1	13	0.0102038	1.44325e-05	0.00141018	0.000109559	0.00141442	4.44247
0.0148076	767.85	48.2145	769.362	-3.59297	893.42	-0.0165061	-0.0102319	222924	875.489	1	13	0.0102037	1.32625e-05	0.00129722	8.14547e-05	0.00129978	3.59297
0.0100006	862.968	37.0308	863.762	-2.45711	1313.79	-0.0165085	-0.00948619	429764	789.891	1	13	0.0102038	1.18132e-05	0.00115666	4.96335e-05	0.00115773	2.45711