File: Python_Codes/EIS_Processing/0720_05_Plotting/0919_01_0.5MTFSI_ZnSym_InsideGB_0hr_RT_Tranference_03_PEIS_C05.mpt
EC-Lab ASCII FILE
Nb header lines : 62

Potentio Electrochemical Impedance Spectroscopy

Run on channel : 5 (SN 35518)
User :
CE vs. WE compliance from -10 V to 10 V
Electrode connection : standard
Ewe ctrl range : min = -2.50 V, max = 2.50 V
Safety Limits :
	Do not start on E overload
Acquisition started on : 09/21/2023 11:07:44
Technique started on : 09/21/2023 13:29:49
Saved on :
	File : 0919_01_0.5MTFSI_ZnSym_InsideGB_0hr_RT_Tranference_03_PEIS_C05.mpr
	Directory : C:\Users\CESL\Documents\EC-Lab\Data\PhD\Leifer\Results\Zn Ion GPE\2023\0919\
	Host : 10.110.196.171
Device : VSP (SN 1724172417241724)
Address : USB
EC-Lab for windows v11.16 (software)
Internet server v11.16 (firmware)
Command interpretor v11.16 (firmware)
Electrode material : Au/Pd
Initial state :
Electrolyte : NaCl (0.2M)
Comments : Fe(CN)63-/Fe(CN)64- 5.10-3 M
Reference electrode : SCE Saturated Calomel Electrode (0.241 V)
Electrode surface area : 0.001 cm²
Characteristic mass : 0.001 g
Equivalent Weight : 0.000 g/eq.
Density : 0.000 g/cm3
Cycle Definition : Charge/Discharge alternance
Mode                Single sine
E (V)               0.0000
vs.                 Eoc
tE (h:m:s)          0:00:0.0000
record              0
dI                  0.000
unit dI             mA
dt (s)              0.000
fi                  1.000
unit fi             MHz
ff                  10.000
unit ff             mHz
Nd                  6
Points              per decade
spacing             Logarithmic
Va (mV)             10.0
pw                  0.10
Na                  2
corr                1
E range min (V)     -2.500
E range max (V)     2.500
I Range             Auto
Bandwidth           5
nc cycles           0
goto Ns'            0
nr cycles           0
inc. cycle          0

freq/Hz	Re(Z)/Ohm	-Im(Z)/Ohm	|Z|/Ohm	Phase(Z)/deg	time/s	<Ewe>/V	<I>/mA	Cs/µF	Cp/µF	cycle number	I Range	|Ewe|/V	|I|/A	Re(Y)/Ohm-1	Im(Y)/Ohm-1	|Y|/Ohm-1	Phase(Y)/deg
1.00002e+06	1.79153	4.44401	4.79154	-68.044	8525.65	-0.0162908	0.038792	0.0358127	0.0308061	1	9	0.000192934	4.02655e-05	0.0780324	0.193564	0.208701	68.044
675752	-2363.05	3269.16	4033.78	-125.861	8527.23	-0.0166093	-0.0118335	7.20439e-05	4.73199e-05	1	13	0.000230049	5.70307e-08	-0.000145227	0.000200914	0.000247906	125.861
456640	29.4569	-5.20541	29.9133	10.0214	8528.26	-0.0164966	-0.00640603	-0.0669562	-0.00202755	1	10	0.00656587	0.000219497	0.0329199	-0.00581735	0.0334299	-10.0214
308574	20.2469	-2.28553	20.3755	6.44046	8528.67	-0.0166354	-0.00649931	-0.22567	-0.00283944	1	10	0.0106252	0.00052147	0.0487689	-0.00550518	0.0490786	-6.44046
208525	17.6996	-1.24124	17.7431	4.01149	8529.21	-0.0165888	-0.00508517	-0.614899	-0.00300927	1	10	0.0101516	0.000572145	0.0562219	-0.00394275	0.05636	-4.01149
140908	16.751	-0.67196	16.7645	2.29717	8529.75	-0.0165529	-0.00479227	-1.6809	-0.00270052	1	10	0.0101425	0.000605001	0.059602	-0.00239091	0.0596499	-2.29717
95214.8	16.3908	-0.325231	16.394	1.13673	8530.16	-0.0165682	-0.00517845	-5.13954	-0.00202273	1	10	0.0107974	0.00065862	0.060986	-0.0012101	0.060998	-1.13673
64345.7	16.227	-0.0541128	16.2271	0.191065	8530.57	-0.0165435	-0.00373261	-45.7089	-0.000508296	1	10	0.0105669	0.00065119	0.0616249	-0.000205502	0.0616252	-0.191065
43476.5	16.1893	0.192442	16.1904	-0.681042	8530.98	-0.016546	-0.00407774	19.0224	0.0026875	1	10	0.0103863	0.00064151	0.0617606	0.000734146	0.0617649	0.681042
29384.8	16.1956	0.41606	16.2009	-1.47159	8531.39	-0.0165425	-0.00402364	13.0179	0.0085857	1	10	0.010249	0.000632622	0.0617046	0.00158518	0.061725	1.47159
19853.5	16.2563	0.672296	16.2702	-2.36817	8531.79	-0.0165464	-0.00381656	11.924	0.020359	1	10	0.010155	0.000624144	0.0614095	0.00253965	0.061462	2.36817
13418	16.3448	0.960432	16.373	-3.36288	8532.07	-0.0165402	-0.00399379	12.35	0.0424957	1	10	0.0107306	0.000655387	0.0609711	0.00358271	0.0610763	3.36288
9082.03	16.4593	1.37103	16.5163	-4.76164	8532.51	-0.0165492	-0.00418408	12.7818	0.0880763	1	10	0.0100582	0.000608991	0.0603374	0.00502599	0.0605464	4.76164
6140.96	16.6118	1.87943	16.7177	-6.45491	8532.91	-0.0165399	-0.00460571	13.7898	0.174283	1	10	0.0101765	0.000608724	0.0594375	0.00672467	0.0598167	6.45491
4141.32	16.8209	2.57897	17.0174	-8.7167	8533.38	-0.0165221	-0.0039117	14.9016	0.342247	1	10	0.0102345	0.000601413	0.0580846	0.00890551	0.0587633	8.7167
2797.31	17.1015	3.56944	17.47	-11.7896	8533.84	-0.0165222	-0.0039714	15.9397	0.665415	1	10	0.0102569	0.000587112	0.0560334	0.0116954	0.0572409	11.7896
1890.6	17.4687	4.92857	18.1506	-15.7558	8534.31	-0.0165209	-0.00404229	17.0804	1.25938	1	10	0.0102469	0.00056455	0.0530245	0.0149602	0.0550945	15.7558
1287.12	17.9659	6.79322	19.2073	-20.7125	8534.78	-0.0165251	-0.00376432	18.2023	2.2769	1	10	0.0102521	0.000533759	0.0486985	0.0184137	0.0520635	20.7125
863.066	18.6241	9.493	20.9039	-27.0086	8535.24	-0.0165308	-0.00346956	19.4255	4.00611	1	10	0.0102329	0.00048952	0.0426206	0.0217244	0.0478379	27.0086
583.692	19.5925	13.1659	23.6052	-33.9007	8535.71	-0.0165302	-0.00436132	20.7102	6.44275	1	10	0.0102296	0.00043336	0.0351619	0.0236284	0.0423635	33.9007
394.117	20.9334	18.3453	27.8345	-41.2301	8536.18	-0.0165244	-0.00387627	22.0126	9.56209	1	10	0.0102203	0.000367183	0.0270193	0.0236787	0.0359267	41.2301
266.449	23.0675	25.6472	34.4948	-48.0312	8536.89	-0.0165491	-0.00941264	23.2898	12.8747	1	11	0.0103094	0.000298869	0.0193863	0.0215543	0.0289899	48.0312
180.058	26.1225	35.7305	44.2612	-53.8296	8537.36	-0.0165496	-0.00929405	24.7383	16.1214	1	11	0.0102634	0.000231881	0.0133342	0.0182387	0.0225931	53.8296
121.595	30.94	49.6934	58.5382	-58.0928	8537.82	-0.0165391	-0.00929647	26.3393	18.9812	1	11	0.0102359	0.000174859	0.00902905	0.0145017	0.0170829	58.0928
82.2368	38.5783	68.4123	78.54	-60.581	8538.27	-0.0165428	-0.00935353	28.2891	21.4638	1	11	0.0102194	0.000130117	0.00625405	0.0110905	0.0127324	60.581
55.5152	50.8082	93.3573	106.288	-61.4435	8538.73	-0.0165451	-0.00931363	30.7086	23.6914	1	11	0.0102087	9.60476e-05	0.00449747	0.00826386	0.00940843	61.4435
37.5601	69.7452	124.769	142.939	-60.795	8539.23	-0.0165416	-0.00958522	33.9616	25.876	1	11	0.0102111	7.1437e-05	0.0034136	0.00610665	0.00699599	60.795
25.3653	98.3701	163.446	190.765	-58.9583	8539.93	-0.0165358	-0.00955023	38.389	28.1811	1	12	0.0102213	5.35804e-05	0.00270312	0.00449135	0.00524205	58.9583
17.1327	140.742	207.325	250.584	-55.8295	8540.35	-0.0165514	-0.00982851	44.8067	30.672	1	12	0.0102108	4.07481e-05	0.0022414	0.00330177	0.00399068	55.8295
11.5912	198.354	254.001	322.275	-52.0132	8540.76	-0.0165532	-0.00972689	54.0572	33.5795	1	12	0.0102071	3.16719e-05	0.0019098	0.00244559	0.00310294	52.0132
7.82815	271.55	297.287	402.639	-47.5906	8541.34	-0.0165473	-0.0097218	68.3889	37.2824	1	12	0.0102013	2.53361e-05	0.00167501	0.00183376	0.00248361	47.5906
5.29302	363.112	336.126	494.804	-42.7899	8542.18	-0.016541	-0.00972044	89.4571	41.2812	1	12	0.0102043	2.06228e-05	0.00148311	0.00137289	0.002021	42.7899
3.57551	463.871	361.777	588.267	-37.951	8543.39	-0.0165385	-0.00963824	123.038	46.5343	1	12	0.0102042	1.73462e-05	0.00134044	0.00104542	0.00169991	37.951
2.41723	570.043	371.343	680.327	-33.0814	8546.04	-0.0165365	-0.00958554	177.307	52.8253	1	13	0.0102068	1.50028e-05	0.00123161	0.000802306	0.00146988	33.0814
1.63271	677.015	372.317	772.637	-28.8081	8548.65	-0.0165381	-0.00952724	261.818	60.7957	1	13	0.0102066	1.321e-05	0.00113409	0.000623678	0.00129427	28.8081
1.10206	778.017	361.512	857.905	-24.9223	8552.5	-0.0165353	-0.00943581	399.478	70.9348	1	13	0.0102068	1.18973e-05	0.00105709	0.000491184	0.00116563	24.9223
0.745609	874.682	342.422	939.32	-21.3794	8558.18	-0.0165358	-0.00930006	623.372	82.8406	1	13	0.0102052	1.08644e-05	0.000991342	0.000388092	0.0010646	21.3794
0.503902	964.409	319.187	1015.86	-18.3128	8566.55	-0.0165405	-0.00912607	989.53	97.6909	1	13	0.0102041	1.00448e-05	0.000934537	0.0003093	0.000984391	18.3128
0.340103	1050.43	294.853	1091.03	-15.6793	8578.94	-0.0165387	-0.0089085	1587.1	115.916	1	13	0.010204	9.35261e-06	0.00088246	0.000247704	0.000916566	15.6793
0.230213	1125.71	270.037	1157.65	-13.4893	8597.24	-0.0165384	-0.00865114	2560.16	139.303	1	13	0.0102038	8.81425e-06	0.000839991	0.000201498	0.00086382	13.4893
0.155473	1194.6	239.089	1218.29	-11.3178	8624.31	-0.0165374	-0.00835358	4281.61	164.902	1	13	0.0102041	8.37578e-06	0.000804863	0.000161087	0.000820825	11.3178
0.105049	1265.29	207.464	1282.18	-9.31167	8664.36	-0.0165362	-0.00801005	7302.74	191.192	1	13	0.0102044	7.95859e-06	0.000769642	0.000126195	0.000779919	9.31167
0.0710227	1344.11	181.766	1356.35	-7.70147	8723.58	-0.0165341	-0.00760893	12328.5	221.409	1	13	0.0102041	7.52321e-06	0.000730625	9.88035e-05	0.000737275	7.70147
0.0479883	1426.93	168.308	1436.82	-6.72703	8811.21	-0.0165424	-0.00716438	19705.2	270.387	1	13	0.0102032	7.10122e-06	0.000691191	8.15269e-05	0.000695983	6.72703
0.0324439	1509.24	155.73	1517.25	-5.89121	8940.81	-0.0165499	-0.00670118	31500.2	331.854	1	13	0.0102045	6.72568e-06	0.000655607	6.76487e-05	0.000659088	5.89121
0.0219206	1601.44	137.996	1607.38	-4.92501	9132.61	-0.0165536	-0.00624127	52613.9	387.793	1	13	0.0102034	6.34786e-06	0.000619835	5.34111e-05	0.000622132	4.92501
0.0148076	1718.01	115.508	1721.89	-3.8464	9416.53	-0.0165507	-0.00575448	93051.4	418.731	1	13	0.0102026	5.92524e-06	0.000579448	3.89583e-05	0.000580756	3.8464
0.0100006	1870.77	104.53	1873.69	-3.1981	9836.9	-0.0165503	-0.00526842	152248	473.847	1	13	0.0102044	5.44616e-06	0.000532875	2.97746e-05	0.000533707	3.1981