File: Python_Codes/EIS_Processing/0720_06_EIS_0.5MTFSI_SymCell_OutsideGB_unsanded_60C_ThinCell_C03.mpt
EC-Lab ASCII FILE
Nb header lines : 62

Potentio Electrochemical Impedance Spectroscopy

Run on channel : 3 (SN 35515)
User :
CE vs. WE compliance from -10 V to 10 V
Electrode connection : standard
Ewe ctrl range : min = -5.00 V, max = 5.00 V
Safety Limits :
	Do not start on E overload
Acquisition started on : 07/20/2023 19:23:36
Technique started on : 07/20/2023 19:23:38
Saved on :
	File : 0720_06_EIS_0.5MTFSI_SymCell_OutsideGB_unsanded_60C_ThinCell_C03.mpr
	Directory : C:\Users\CESL\Documents\EC-Lab\Data\PhD\Leifer\Results\Zn Ion GPE\2023\0720\
	Host : 10.110.196.171
Device : VSP (SN 17241724)
Address : USB
EC-Lab for windows v11.16 (software)
Internet server v11.16 (firmware)
Command interpretor v11.16 (firmware)
Electrode material : Au/Pd
Initial state :
Electrolyte : NaCl (0.2M)
Comments : Fe(CN)63-/Fe(CN)64- 5.10-3 M
Reference electrode : SCE Saturated Calomel Electrode (0.241 V)
Electrode surface area : 0.001 cm²
Characteristic mass : 0.001 g
Equivalent Weight : 0.000 g/eq.
Density : 0.000 g/cm3
Cycle Definition : Charge/Discharge alternance
Mode                Single sine
E (V)               0.0000
vs.                 Eoc
tE (h:m:s)          0:00:0.0000
record              0
dI                  0.000
unit dI             mA
dt (s)              0.000
fi                  1.000
unit fi             MHz
ff                  10.000
unit ff             mHz
Nd                  6
Points              per decade
spacing             Logarithmic
Va (mV)             10.0
pw                  0.10
Na                  2
corr                1
E range min (V)     -5.000
E range max (V)     5.000
I Range             Auto
Bandwidth           5
nc cycles           0
goto Ns'            0
nr cycles           0
inc. cycle          0

freq/Hz	Re(Z)/Ohm	-Im(Z)/Ohm	|Z|/Ohm	Phase(Z)/deg	time/s	<Ewe>/V	<I>/mA	Cs/µF	Cp/µF	cycle number	I Range	|Ewe|/V	|I|/A	Re(Y)/Ohm-1	Im(Y)/Ohm-1	|Y|/Ohm-1	Phase(Y)/deg
1.00002e+06	-81.0752	25.9058	85.1135	-162.28	2.6391	0.00238659	-0.000998535	0.00614348	0.000569131	1	11	0.000303363	3.56422e-06	-0.0111916	0.00357603	0.011749	162.28
675752	40.6303	-10.0541	41.8558	13.8989	3.04809	0.00175203	-0.00112626	-0.0234255	-0.00135166	1	11	0.00146464	3.49924e-05	0.023192	-0.00573896	0.0238915	-13.8989
456640	23.852	-3.18797	24.0641	7.61281	3.75108	0.00176546	0.00503145	-0.109328	-0.00191875	1	10	0.00807053	0.000335376	0.0411894	-0.00550521	0.0415556	-7.61281
308574	19.9404	-1.14876	19.9735	3.29714	4.1601	0.00151172	0.00623427	-0.448985	-0.00148519	1	10	0.0109853	0.000549996	0.0499835	-0.00287953	0.0500664	-3.29714
208525	18.5953	0.035885	18.5953	-0.110569	4.70109	0.00149036	0.00515267	21.2691	7.92077e-05	1	10	0.010162	0.000546479	0.0537769	0.000103778	0.053777	0.110569
140908	18.1507	1.05617	18.1814	-3.33024	5.2421	0.00151083	0.00588182	1.06942	0.00360883	1	10	0.010108	0.000555957	0.0549085	0.00319508	0.0550014	3.33024
95214.8	18.1033	2.01964	18.2156	-6.36571	5.6511	0.00150395	0.00438622	0.82764	0.0101742	1	10	0.0107962	0.000592691	0.0545595	0.00608676	0.054898	6.36571
64345.7	18.3389	3.13621	18.6052	-9.70449	6.0601	0.00150969	0.00589674	0.78867	0.0224098	1	10	0.0104987	0.000564291	0.0529794	0.0090602	0.0537485	9.70449
43476.5	18.6982	4.50998	19.2344	-13.5606	6.46908	0.00151465	0.00510045	0.811691	0.0446252	1	10	0.0104173	0.000541595	0.0505407	0.0121903	0.0519901	13.5606
29384.8	19.2091	6.27492	20.208	-18.0903	6.87808	0.00151079	0.00487108	0.863157	0.0832259	1	10	0.0101775	0.000503635	0.0470391	0.015366	0.0494853	18.0903
19853.5	19.9876	8.64509	21.7771	-23.3896	7.28709	0.00149851	0.00561141	0.927285	0.146135	1	10	0.0101813	0.000467524	0.0421465	0.0182293	0.0459199	23.3896
13418	21.0179	11.8364	24.1216	-29.3865	7.56408	0.00152303	0.00532796	1.0021	0.241292	1	10	0.010485	0.000434673	0.0361223	0.0203427	0.0414566	29.3865
9082.03	22.4342	16.1798	27.6601	-35.7995	7.86034	0.00151245	0.00529998	1.08309	0.370598	1	10	0.0105368	0.00038094	0.0293227	0.0211478	0.0361532	35.7995
6140.96	24.2404	22.1342	32.8256	-42.3996	8.26365	0.00150557	0.00289434	1.1709	0.532381	1	10	0.0104816	0.000319312	0.0224965	0.0205418	0.030464	42.3996
4141.32	26.9114	30.4533	40.6402	-48.5332	9.2047	0.00151349	0.000485025	1.26196	0.708604	1	11	0.0100475	0.000247232	0.0162939	0.0184384	0.0246062	48.5332
2797.31	30.5259	41.7427	51.7134	-53.8225	9.67092	0.00150837	0.000447916	1.36301	0.888081	1	11	0.00957896	0.000185231	0.0114146	0.0156089	0.0193373	53.8225
1890.6	35.3834	57.15	67.2168	-58.237	10.1357	0.00151103	0.000488005	1.473	1.06483	1	11	0.00927072	0.000137923	0.00783146	0.0126491	0.0148772	58.237
1287.12	41.8402	77.8282	88.3619	-61.7376	10.6022	0.00150963	0.000518027	1.58879	1.23256	1	11	0.00909832	0.000102967	0.00535875	0.00996797	0.0113171	61.7376
863.066	50.7416	107.391	118.775	-64.7094	11.2912	0.00151485	0.000498633	1.71716	1.40376	1	11	0.0100133	8.43051e-05	0.0035968	0.00761233	0.0084193	64.7094
583.692	62.6297	147.138	159.912	-66.9428	11.7582	0.0015055	0.000430012	1.85316	1.5689	1	11	0.00995297	6.22401e-05	0.00244915	0.00575386	0.00625342	66.9428
394.117	78.7011	201.914	216.71	-68.7054	12.2252	0.00151034	0.00042535	1.99999	1.73622	1	11	0.00992363	4.57922e-05	0.0016758	0.00429941	0.00461446	68.7054
266.449	99.3167	279.331	296.461	-70.427	12.9407	0.00151194	-7.78998e-05	2.13839	1.8984	1	12	0.0100404	3.38676e-05	0.00113002	0.00317821	0.00337312	70.427
180.058	127.987	385.52	406.209	-71.6345	13.4057	0.00151903	9.3251e-06	2.29278	2.06517	1	12	0.00996252	2.45256e-05	0.000775651	0.0023364	0.00246178	71.6345
121.595	170.922	533.528	560.237	-72.2365	13.8661	0.00151288	-6.1697e-05	2.45328	2.22493	1	12	0.00992975	1.77242e-05	0.00054457	0.00169986	0.00178496	72.2365
82.2368	230.368	736.355	771.549	-72.6277	14.3213	0.00151122	-7.59053e-05	2.62825	2.39394	1	12	0.00990777	1.28414e-05	0.000386986	0.00123697	0.00129609	72.6277
55.5152	314.243	1023.23	1070.39	-72.9278	14.7829	0.00151109	-5.71104e-05	2.8018	2.56032	1	12	0.0098977	9.24679e-06	0.00027427	0.00089307	0.000934236	72.9278
37.5601	431.874	1429	1492.83	-73.184	15.2747	0.00151914	-3.79519e-05	2.96526	2.71708	1	12	0.00989539	6.6286e-06	0.000193792	0.000641223	0.000669868	73.184
25.3653	615.983	1984.42	2077.82	-72.7552	15.9839	0.00151549	-2.26106e-05	3.16189	2.88401	1	13	0.00991607	4.77233e-06	0.000142676	0.000459638	0.000481272	72.7552
17.1327	911.277	2746.03	2893.28	-71.6414	16.3978	0.00150913	-2.31588e-05	3.38291	3.04732	1	13	0.00990695	3.42412e-06	0.00010886	0.000328037	0.000345628	71.6414
11.5912	1376.25	3740.79	3985.92	-69.8012	16.8073	0.00149923	-2.81109e-05	3.67051	3.23292	1	13	0.00989695	2.48298e-06	8.66245e-05	0.000235454	0.000250883	69.8012
7.82815	2112.74	5087.83	5509.05	-67.4492	17.3883	0.00150707	-2.91121e-05	3.99603	3.40831	1	13	0.00989618	1.79635e-06	6.96132e-05	0.00016764	0.000181519	67.4492
5.29302	3262.41	6707.27	7458.61	-64.0617	18.2247	0.00150948	-6.09571e-07	4.48302	3.62532	1	13	0.00989589	1.32677e-06	5.8644e-05	0.000120567	0.000134073	64.0617
3.57551	5085.65	8640.92	10026.4	-59.5209	20.0474	0.00151246	-6.1736e-06	5.15136	3.82603	1	14	0.00989896	9.87286e-07	5.05887e-05	8.59542e-05	9.97364e-05	59.5209
2.41723	7727.58	10659	13165.5	-54.0585	21.8246	0.00151144	-6.91733e-06	6.17712	4.04898	1	14	0.00989859	7.51861e-07	4.45832e-05	6.14955e-05	7.59563e-05	54.0585
1.63271	11308.8	12230	16657.2	-47.2413	24.4355	0.00151257	2.34887e-06	7.97047	4.29671	1	14	0.00989666	5.94137e-07	4.07579e-05	4.40782e-05	6.00341e-05	47.2413
1.10206	15626.7	13000	20327.2	-39.7574	28.2845	0.0015203	2.02166e-06	11.1089	4.54365	1	14	0.00989632	4.86852e-07	3.78192e-05	3.14623e-05	4.91952e-05	39.7574
0.745609	19618.1	12660.4	23348.6	-32.8359	33.9552	0.00151678	1.36479e-06	16.8601	4.95719	1	14	0.00989727	4.23892e-07	3.59862e-05	2.32235e-05	4.28292e-05	32.8359
0.503902	23707	11683	26429.5	-26.2345	42.331	0.00151538	2.24855e-06	27.0345	5.28267	1	14	0.00989761	3.74492e-07	3.39391e-05	1.67255e-05	3.78366e-05	26.2345
0.340103	26772.4	9889.18	28540.5	-20.2732	54.7245	0.00151939	-1.12194e-06	47.3205	5.6813	1	14	0.00989818	3.46812e-07	3.28674e-05	1.21405e-05	3.5038e-05	20.2732
0.230213	28423.9	8137.7	29565.8	-15.9763	73.0178	0.00152159	9.27084e-06	84.9551	6.43593	1	14	0.00989664	3.34732e-07	3.25164e-05	9.30938e-06	3.38228e-05	15.9763
0.155473	30705.2	6323.08	31349.5	-11.6362	100.089	0.00152412	2.38091e-06	161.897	6.58618	1	14	0.00990226	3.15867e-07	3.12429e-05	6.43379e-06	3.18984e-05	11.6362
0.105049	34180.7	1139.34	34199.6	-1.90913	140.138	0.00152493	0.000136359	1329.76	1.47584	1	14	0.00989901	2.89448e-07	2.92238e-05	9.74118e-07	2.92401e-05	1.90913
0.0710227	32955.8	3713.14	33164.3	-6.42843	199.359	0.00151504	6.83892e-05	603.506	7.56525	1	14	0.00989832	2.98463e-07	2.99633e-05	3.37599e-06	3.01529e-05	6.42843
0.0479883	35061.7	3293.9	35216.1	-5.36694	286.99	0.00151929	6.81914e-05	1006.87	8.80871	1	14	0.00989873	2.81085e-07	2.82716e-05	2.656e-06	2.83961e-05	5.36694
0.0324439	36389	2288.64	36460.9	-3.59881	416.59	0.00152846	8.54618e-05	2143.43	8.44521	1	14	0.00989858	2.71485e-07	2.73726e-05	1.72157e-06	2.74267e-05	3.59881
0.0219206	39838.6	2254.68	39902.3	-3.23923	608.391	0.0015132	0.000123297	3220.2	10.2815	1	14	0.00989781	2.48051e-07	2.50212e-05	1.41608e-06	2.50612e-05	3.23923
0.0148076	42369.9	1813.36	42408.6	-2.45067	892.309	0.00152111	0.000193173	5927.21	10.837	1	14	0.00990042	2.33453e-07	2.35585e-05	1.00827e-06	2.35801e-05	2.45067
0.0100006	45780.4	2628.16	45855.8	-3.28563	1312.68	0.00152201	0.000258752	6055.37	19.891	1	14	0.00990069	2.15909e-07	2.17716e-05	1.24987e-06	2.18075e-05	3.28563