File: Python_Codes/EIS_Processing/0720_06_EIS_0.5MTFSI_SymCell_OutsideGB_unsanded_40C_ThinCell_C03.mpt
EC-Lab ASCII FILE
Nb header lines : 62

Potentio Electrochemical Impedance Spectroscopy

Run on channel : 3 (SN 35515)
User :
CE vs. WE compliance from -10 V to 10 V
Electrode connection : standard
Ewe ctrl range : min = -5.00 V, max = 5.00 V
Safety Limits :
	Do not start on E overload
Acquisition started on : 07/20/2023 18:46:26
Technique started on : 07/20/2023 18:46:28
Saved on :
	File : 0720_06_EIS_0.5MTFSI_SymCell_OutsideGB_unsanded_40C_ThinCell_C03.mpr
	Directory : C:\Users\CESL\Documents\EC-Lab\Data\PhD\Leifer\Results\Zn Ion GPE\2023\0720\
	Host : 10.110.196.171
Device : VSP (SN 17241724)
Address : USB
EC-Lab for windows v11.16 (software)
Internet server v11.16 (firmware)
Command interpretor v11.16 (firmware)
Electrode material : Au/Pd
Initial state :
Electrolyte : NaCl (0.2M)
Comments : Fe(CN)63-/Fe(CN)64- 5.10-3 M
Reference electrode : SCE Saturated Calomel Electrode (0.241 V)
Electrode surface area : 0.001 cm²
Characteristic mass : 0.001 g
Equivalent Weight : 0.000 g/eq.
Density : 0.000 g/cm3
Cycle Definition : Charge/Discharge alternance
Mode                Single sine
E (V)               0.0000
vs.                 Eoc
tE (h:m:s)          0:00:0.0000
record              0
dI                  0.000
unit dI             mA
dt (s)              0.000
fi                  1.000
unit fi             MHz
ff                  10.000
unit ff             mHz
Nd                  6
Points              per decade
spacing             Logarithmic
Va (mV)             10.0
pw                  0.10
Na                  2
corr                1
E range min (V)     -5.000
E range max (V)     5.000
I Range             Auto
Bandwidth           5
nc cycles           0
goto Ns'            0
nr cycles           0
inc. cycle          0

freq/Hz	Re(Z)/Ohm	-Im(Z)/Ohm	|Z|/Ohm	Phase(Z)/deg	time/s	<Ewe>/V	<I>/mA	Cs/µF	Cp/µF	cycle number	I Range	|Ewe|/V	|I|/A	Re(Y)/Ohm-1	Im(Y)/Ohm-1	|Y|/Ohm-1	Phase(Y)/deg
1.00002e+06	-460.252	-167.545	489.799	159.997	2.8191	-0.00298356	0.000422311	-0.000949904	-0.00011115	1	12	0.000889857	1.81678e-06	-0.00191849	-0.000698387	0.00204165	-159.997
675752	252.601	-16.7773	253.157	3.7999	3.97809	-0.00373475	0.000228252	-0.0140382	-6.16557e-05	1	11	0.00654798	2.58653e-05	0.00394143	-0.000261782	0.00395011	-3.7999
456640	143.25	-7.01519	143.422	2.80362	4.38709	-0.0038621	0.000225456	-0.0496828	-0.000118865	1	11	0.0106562	7.42995e-05	0.00696408	-0.000341041	0.00697242	-2.80362
308574	118.551	-3.86833	118.614	1.8689	4.92808	-0.00398447	0.000560356	-0.133333	-0.000141811	1	11	0.0101217	8.53333e-05	0.0084262	-0.000274948	0.00843069	-1.8689
208525	109.279	-1.3704	109.288	0.718473	5.33708	-0.00398072	0.000474207	-0.556946	-8.75722e-05	1	11	0.0108392	9.91807e-05	0.00914943	-0.000114737	0.00915015	-0.718473
140908	105.317	0.539513	105.319	-0.293509	5.74608	-0.00398182	0.0003916	2.09354	5.49382e-05	1	11	0.0107255	0.000101839	0.00949486	4.86397e-05	0.00949499	0.293509
95214.8	104.111	2.59334	104.144	-1.4269	6.15509	-0.00396877	0.000415095	0.644549	0.000399677	1	11	0.0106085	0.000101864	0.00959914	0.000239108	0.00960212	1.4269
64345.7	103.67	4.96732	103.788	-2.74323	6.56408	-0.00397462	0.000377242	0.497942	0.00114058	1	11	0.0104901	0.000101072	0.00962394	0.000461131	0.00963498	2.74323
43476.5	104.038	7.43165	104.303	-4.08581	6.9731	-0.0039779	0.000358595	0.492584	0.00250066	1	11	0.0104589	0.000100274	0.00956307	0.000683109	0.00958743	4.08581
29384.8	104.829	10.7294	105.376	-5.84395	7.38208	-0.00395537	0.000424792	0.504805	0.00523341	1	11	0.0103006	9.77506e-05	0.00944047	0.000966245	0.00948979	5.84395
19853.5	106.038	14.8385	107.071	-7.96605	7.79109	-0.00396422	0.000313655	0.540246	0.010376	1	11	0.0101873	9.51458e-05	0.00924949	0.00129434	0.00933961	7.96605
13418	107.777	20.6945	109.746	-10.8692	8.1991	-0.00395444	0.000454627	0.573163	0.0203803	1	11	0.0101721	9.26874e-05	0.00894847	0.00171821	0.00911193	10.8692
9082.03	110.204	28.5194	113.835	-14.5091	8.49633	-0.00396989	0.000281023	0.614464	0.0385681	1	11	0.0106136	9.32369e-05	0.0085045	0.00220085	0.00878466	14.5091
6140.96	113.577	39.1122	120.122	-19.0021	8.89963	-0.00397323	0.000231422	0.66263	0.0702503	1	11	0.010784	8.97748e-05	0.00787119	0.00271059	0.00832484	19.0021
4141.32	118.371	53.9516	130.087	-24.5027	9.36568	-0.0039397	0.000574713	0.712323	0.122524	1	11	0.0108241	8.32068e-05	0.00699489	0.00318815	0.00768719	24.5027
2797.31	125.068	74.1458	145.394	-30.6614	9.83193	-0.00394441	0.000497514	0.767348	0.199559	1	11	0.010808	7.43355e-05	0.0059163	0.00350745	0.00687785	30.6614
1890.6	135.009	101.352	168.819	-36.8958	10.2967	-0.00393988	0.000473646	0.830587	0.299372	1	11	0.0107692	6.37913e-05	0.0047372	0.00355625	0.00592351	36.8958
1287.12	147.921	136.966	201.595	-42.7978	10.7632	-0.00394799	0.000497141	0.902796	0.416732	1	11	0.0107214	5.31829e-05	0.00363976	0.0033702	0.00496045	42.7978
863.066	167.183	186.772	250.667	-48.1677	11.2302	-0.00395339	0.000472526	0.987332	0.548142	1	11	0.0106948	4.26652e-05	0.00266071	0.00297247	0.00398935	48.1677
583.692	191.928	252.579	317.226	-52.7697	11.9492	-0.00398335	9.15908e-05	1.07954	0.684377	1	12	0.0109203	3.44244e-05	0.00190722	0.00250992	0.00315233	52.7697
394.117	225.465	340.718	408.563	-56.506	12.4162	-0.00397552	7.53512e-06	1.18522	0.824276	1	12	0.0107908	2.64116e-05	0.00135071	0.00204116	0.00244761	56.506
266.449	270.069	459.408	532.91	-59.5502	12.8797	-0.00397936	8.13166e-05	1.30019	0.966264	1	12	0.0107227	2.0121e-05	0.000950972	0.00161767	0.00187649	59.5502
180.058	329.139	622.748	704.377	-62.1423	13.3447	-0.00398046	8.03281e-05	1.41937	1.10946	1	12	0.0106919	1.51792e-05	0.00066339	0.00125517	0.00141969	62.1423
121.595	400.766	842.234	932.722	-64.5531	13.8051	-0.00398372	2.43719e-05	1.55407	1.26716	1	12	0.0106734	1.14433e-05	0.000460666	0.000968117	0.00107213	64.5531
82.2368	496.61	1154.94	1257.18	-66.7328	14.2603	-0.00398249	2.73552e-05	1.6757	1.41422	1	12	0.0106592	8.47869e-06	0.000314211	0.000730742	0.000795432	66.7328
55.5152	620.086	1562.74	1681.27	-68.3571	14.7229	-0.0039791	7.61326e-05	1.83452	1.58497	1	12	0.0106555	6.33777e-06	0.00021937	0.000552856	0.000594789	68.3571
37.5601	812.095	2163.4	2310.8	-69.4249	15.4788	-0.00395964	-1.41439e-05	1.95865	1.71675	1	13	0.0106789	4.62129e-06	0.000152084	0.000405147	0.000432751	69.4249
25.3653	1067.5	2978.26	3163.79	-70.2807	15.9379	-0.00396803	-1.32956e-05	2.10678	1.86693	1	13	0.0106517	3.36674e-06	0.000106648	0.000297541	0.000316076	70.2807
17.1327	1452.53	4130.34	4378.31	-70.6246	16.3508	-0.00397777	-1.12521e-05	2.2491	2.00156	1	13	0.0106558	2.43377e-06	7.57727e-05	0.000215464	0.000228399	70.6246
11.5912	2023.59	5661.49	6012.27	-70.3315	16.7603	-0.00398394	-7.88486e-06	2.42527	2.15052	1	13	0.0106497	1.77133e-06	5.59817e-05	0.000156622	0.000166326	70.3315
7.82815	2934.15	7748.17	8285.13	-69.2589	17.3413	-0.00397485	-1.19243e-05	2.62399	2.29489	1	13	0.0106515	1.28562e-06	4.27448e-05	0.000112876	0.000120698	69.2589
5.29302	4291.99	10488.1	11332.3	-67.7444	18.6048	-0.00396644	-4.11072e-06	2.86694	2.4557	1	14	0.0106564	9.40354e-07	3.34211e-05	8.16693e-05	8.82431e-05	67.7444
3.57551	6353.67	14060.4	15429.3	-65.6826	19.8193	-0.00396296	-6.55691e-06	3.1658	2.62897	1	14	0.0106526	6.90412e-07	2.66889e-05	5.90614e-05	6.48116e-05	65.6826
2.41723	9559.66	18509.5	20832.4	-62.6849	21.5965	-0.00396324	-4.94511e-06	3.55719	2.80813	1	14	0.0106491	5.1118e-07	2.20274e-05	4.26497e-05	4.80021e-05	62.6849
1.63271	14414.6	23684.7	27726.2	-58.6751	24.2074	-0.00396205	-7.7915e-06	4.11571	3.00329	1	14	0.0106486	3.84064e-07	1.87508e-05	3.08096e-05	3.60669e-05	58.6751
1.10206	21460.2	29250.7	36278.7	-53.7338	28.0564	-0.00396398	-9.49908e-06	4.93718	3.20958	1	14	0.0106498	2.93555e-07	1.63054e-05	2.22246e-05	2.75644e-05	53.7338
0.745609	30779.5	33946.1	45822.6	-47.8008	33.7281	-0.00396266	-1.01021e-05	6.2881	3.45095	1	14	0.01065	2.32419e-07	1.46589e-05	1.6167e-05	2.18233e-05	47.8008
0.503902	42267.5	37182.6	56294.7	-41.338	42.104	-0.0039632	-1.12923e-05	8.49443	3.70578	1	14	0.0106513	1.89206e-07	1.33374e-05	1.17329e-05	1.77637e-05	41.338
0.340103	54574.6	38053.1	66531.4	-34.8868	54.4974	-0.0039669	-1.02031e-05	12.2976	4.02297	1	14	0.0106515	1.60097e-07	1.23293e-05	8.5968e-06	1.50305e-05	34.8868
0.230213	66623.1	36224.4	75834.3	-28.5339	72.7907	-0.00395947	-1.14184e-05	19.0849	4.35472	1	14	0.0106529	1.40477e-07	1.15849e-05	6.29897e-06	1.31867e-05	28.5339
0.155473	77010.1	31437.6	83179.8	-22.2066	99.8618	-0.00395905	-1.40391e-05	32.5624	4.65136	1	14	0.0106512	1.2805e-07	1.11304e-05	4.54374e-06	1.20221e-05	22.2066
0.105049	85910	27099.4	90082.8	-17.5073	139.91	-0.00395769	-1.73871e-05	55.9073	5.05946	1	14	0.0106518	1.18245e-07	1.05867e-05	3.33946e-06	1.11009e-05	17.5073
0.0710227	92497.8	21667.1	95001.6	-13.1835	199.131	-0.00395601	-1.98322e-05	103.424	5.37975	1	14	0.010651	1.12114e-07	1.02487e-05	2.40071e-06	1.05261e-05	13.1835
0.0479883	95069.1	15875.5	96385.5	-9.48029	286.762	-0.00395631	-1.41424e-05	208.909	5.66745	1	14	0.0106505	1.10499e-07	1.02333e-05	1.70885e-06	1.0375e-05	9.48029
0.0324439	100973	12062	101691	-6.81211	416.362	-0.00394872	-3.00205e-05	406.694	5.72187	1	14	0.0106509	1.04738e-07	9.76426e-06	1.16641e-06	9.83368e-06	6.81211
0.0219206	102860	9960.09	103341	-5.53078	608.162	-0.00395539	-3.83709e-05	728.962	6.77147	1	14	0.0106509	1.03065e-07	9.63162e-06	9.32642e-07	9.67667e-06	5.53078
0.0148076	105657	10083.2	106137	-5.45144	892.08	-0.00395264	-5.01434e-05	1065.95	9.62061	1	14	0.0106515	1.00356e-07	9.37919e-06	8.95092e-07	9.42181e-06	5.45144
0.0100006	116567	7200.42	116789	-3.53471	1312.45	-0.0039575	-4.51895e-05	2210.21	8.40129	1	14	0.0106509	9.11981e-08	8.54615e-06	5.27902e-07	8.56244e-06	3.53471