File: Python Codes/Alyssa_Old_Files/Functions.py/EIS Results/Blocking Cells/2023_06_21/0614_01_EIS_0.5MTFSI_Blocking_Remelt_Initial_Test_6_21_23_C01.mpt
EC-Lab ASCII FILE
Nb header lines : 62

Potentio Electrochemical Impedance Spectroscopy

Run on channel : 1 (SN 35512)
User :
CE vs. WE compliance from -10 V to 10 V
Electrode connection : standard
Ewe ctrl range : min = -5.00 V, max = 5.00 V
Safety Limits :
	Do not start on E overload
Acquisition started on : 06/21/2023 16:20:26
Technique started on : 06/21/2023 16:20:28
Saved on :
	File : 0614_01_EIS_0.5MTFSI_Blocking_Remelt_Initial_Test_6_21_23_C01.mpr
	Directory : C:\Users\CESL\Documents\EC-Lab\Data\PhD\Leifer\Results\Zn Ion GPE\2023\0614\
	Host : 10.110.196.171
Device : VSP (SN 172417241724)
Address : USB
EC-Lab for windows v11.16 (software)
Internet server v11.16 (firmware)
Command interpretor v11.16 (firmware)
Electrode material : Au/Pd
Initial state :
Electrolyte : NaCl (0.2M)
Comments : Fe(CN)63-/Fe(CN)64- 5.10-3 M
Reference electrode : SCE Saturated Calomel Electrode (0.241 V)
Electrode surface area : 0.001 cm²
Characteristic mass : 0.001 g
Equivalent Weight : 0.000 g/eq.
Density : 0.000 g/cm3
Cycle Definition : Charge/Discharge alternance
Mode                Single sine
E (V)               0.0000
vs.                 Eoc
tE (h:m:s)          0:00:0.0000
record              0
dI                  0.000
unit dI             mA
dt (s)              0.000
fi                  1.000
unit fi             MHz
ff                  10.000
unit ff             mHz
Nd                  6
Points              per decade
spacing             Logarithmic
Va (mV)             10.0
pw                  0.10
Na                  2
corr                1
E range min (V)     -5.000
E range max (V)     5.000
I Range             Auto
Bandwidth           5
nc cycles           0
goto Ns'            0
nr cycles           0
inc. cycle          0

freq/Hz	Re(Z)/Ohm	-Im(Z)/Ohm	|Z|/Ohm	Phase(Z)/deg	time/s	<Ewe>/V	<I>/mA	Cs/µF	Cp/µF	cycle number	I Range	|Ewe|/V	|I|/A	Re(Y)/Ohm-1	Im(Y)/Ohm-1	|Y|/Ohm-1	Phase(Y)/deg
1.00002e+06	84.9617	12.563	85.8855	-8.41119	2.48809	-0.0904076	-0.00119154	0.0126683	0.00027106	1	11	0.000401458	4.67434e-06	0.0115182	0.00170315	0.0116434	8.41119
675752	65.0873	-0.0487576	65.0873	0.0429209	2.89708	-0.0909568	0.000275323	-4.83048	-2.71071e-06	1	11	0.00196607	3.02066e-05	0.015364	-1.15093e-05	0.015364	-0.0429209
456640	35.4031	-0.156827	35.4035	0.253805	3.30608	-0.0908591	0.000261344	-2.22241	-4.36089e-05	1	11	0.00604269	0.000170681	0.0282455	-0.000125121	0.0282458	-0.253805
308574	29.2347	0.86147	29.2474	-1.68787	4.00909	-0.0910468	0.0110052	0.598715	0.00051943	1	10	0.00909248	0.000310882	0.0341763	0.00100709	0.0341911	1.68787
208525	27.1136	1.05968	27.1343	-2.23815	4.55008	-0.0910562	0.0107367	0.720255	0.0010985	1	10	0.0101349	0.000373509	0.0368256	0.00143926	0.0368537	2.23815
140908	26.3664	1.32557	26.3997	-2.87813	5.09109	-0.091065	0.0102351	0.852081	0.00214828	1	10	0.0101239	0.000383486	0.0378315	0.00190198	0.0378793	2.87813
95214.8	26.011	1.77582	26.0716	-3.90562	5.50008	-0.0910486	0.0103377	0.941276	0.00436696	1	10	0.0106444	0.000408275	0.0382669	0.00261255	0.0383559	3.90562
64345.7	25.9222	2.43131	26.036	-5.35823	5.90909	-0.091077	0.0106342	1.01733	0.0088714	1	10	0.0104599	0.000401747	0.0382405	0.00358667	0.0384084	5.35823
43476.5	26.0582	3.31999	26.2688	-7.26076	6.3171	-0.0910606	0.0112476	1.10263	0.0176125	1	10	0.0103535	0.000394135	0.0377627	0.00481123	0.038068	7.26076
29384.8	26.286	4.62217	26.6893	-9.97302	6.72609	-0.0910698	0.0110891	1.1718	0.0351455	1	10	0.0102228	0.000383029	0.036902	0.00648891	0.0374682	9.97302
19853.5	26.5836	6.44598	27.354	-13.63	7.1351	-0.0910642	0.00994606	1.24364	0.0690607	1	10	0.0100237	0.000366443	0.0355282	0.00861486	0.0365578	13.63
13418	27.0174	9.1289	28.518	-18.6696	7.41208	-0.0910451	0.011712	1.29932	0.133142	1	10	0.0104319	0.000365799	0.0332205	0.0112248	0.0350656	18.6696
9082.03	27.5587	12.9206	30.4372	-25.1191	7.70934	-0.0910645	0.0100598	1.35629	0.244405	1	10	0.0105786	0.000347556	0.0297474	0.0139468	0.0328545	25.1191
6140.96	28.2839	18.3218	33.6996	-32.9345	8.11263	-0.0910782	0.00773076	1.41454	0.418121	1	10	0.0106239	0.000315252	0.0249051	0.0161331	0.0296739	32.9345
4141.32	29.4708	26.2266	39.4508	-41.6664	9.05367	-0.0910731	0.00124627	1.46534	0.647607	1	11	0.0102402	0.000259569	0.0189357	0.0168512	0.0253481	41.6664
2797.31	30.9516	37.5409	48.6551	-50.4953	9.51996	-0.0910683	0.00120433	1.51556	0.902249	1	11	0.0099225	0.000203935	0.0130745	0.015858	0.0205528	50.4953
1890.6	33.1839	53.7323	63.1532	-58.3014	9.98467	-0.0910707	0.00125839	1.56669	1.13413	1	11	0.0096229	0.000152374	0.00832025	0.0134724	0.0158345	58.3014
1287.12	36.2102	76.4349	84.5782	-64.6513	10.4512	-0.0910686	0.00114765	1.61775	1.32123	1	11	0.00942215	0.000111402	0.00506191	0.010685	0.0118234	64.6513
863.066	40.8281	110.135	117.459	-69.6597	10.9182	-0.0910747	0.001162	1.67437	1.47207	1	11	0.00931358	7.92924e-05	0.0029593	0.00798276	0.00851363	69.6597
583.692	47.4041	157.4	164.384	-73.2393	11.3852	-0.0910759	0.00109227	1.73233	1.58827	1	11	0.00924915	5.62656e-05	0.00175428	0.00582489	0.00608333	73.2393
394.117	57.2433	225.312	232.47	-75.7449	11.8522	-0.0910686	0.00107792	1.7923	1.68362	1	11	0.00923098	3.97082e-05	0.00105923	0.00416917	0.00430163	75.7449
266.449	72.1174	322.963	330.917	-77.4124	12.5676	-0.091076	7.43e-05	1.84949	1.76165	1	12	0.00932353	2.81749e-05	0.000658571	0.00294927	0.00302191	77.4124
180.058	94.1111	461.355	470.856	-78.4705	13.0327	-0.0910701	6.05362e-05	1.9159	1.83937	1	12	0.00925903	1.96643e-05	0.000424488	0.00208094	0.00212379	78.4705
121.595	127.853	658.541	670.837	-79.013	13.4931	-0.0910702	6.52171e-05	1.98756	1.91537	1	12	0.00922957	1.37583e-05	0.000284103	0.00146335	0.00149067	79.013
82.2368	177.483	933.639	950.359	-79.2366	13.9483	-0.091073	4.18858e-05	2.07288	2.00059	1	12	0.00921367	9.69494e-06	0.000196508	0.00103372	0.00105223	79.2366
55.5152	252.179	1327.63	1351.36	-79.245	14.4099	-0.0910725	4.40491e-05	2.1594	2.0842	1	12	0.00919856	6.80687e-06	0.00013809	0.000726994	0.000739993	79.245
37.5601	356.847	1884.88	1918.36	-79.2796	15.1668	-0.091063	5.42155e-06	2.24807	2.17028	1	13	0.00923208	4.81248e-06	9.69664e-05	0.00051218	0.000521278	79.2796
25.3653	512.147	2664.04	2712.83	-79.118	15.6259	-0.0910724	5.43178e-06	2.35526	2.27132	1	13	0.00921463	3.39669e-06	6.95907e-05	0.000361991	0.000368619	79.118
17.1327	729.56	3749.43	3819.75	-78.989	16.0398	-0.091073	3.03722e-06	2.47759	2.38721	1	13	0.00920666	2.41028e-06	5.00025e-05	0.000256978	0.000261797	78.989
11.5912	1046.1	5284.55	5387.09	-78.8028	16.4493	-0.0910769	-1.01894e-06	2.59826	2.50028	1	13	0.00919318	1.70652e-06	3.60466e-05	0.000182095	0.000185629	78.8028
7.82815	1535.13	7457.52	7613.89	-78.3682	17.0303	-0.0910646	-4.18182e-06	2.72625	2.61543	1	13	0.00919732	1.20797e-06	2.64808e-05	0.000128642	0.000131339	78.3682
5.29302	2262.83	10475	10716.7	-77.8102	18.2937	-0.0910628	-2.72868e-06	2.87052	2.74254	1	14	0.00920797	8.5922e-07	1.9703e-05	9.12088e-05	9.33127e-05	77.8102
3.57551	3170.15	14654.1	14993.1	-77.7932	19.5083	-0.0910668	-5.55694e-06	3.03754	2.90174	1	14	0.00920131	6.13704e-07	1.41026e-05	6.51894e-05	6.66974e-05	77.7932
2.41723	4513.32	20549.7	21039.5	-77.6128	21.2856	-0.0910609	-4.83044e-06	3.20402	3.05658	1	14	0.00919806	4.3718e-07	1.01959e-05	4.64231e-05	4.75296e-05	77.6128
1.63271	6478	28717.4	29439	-77.2881	23.8952	-0.0910618	-4.44107e-06	3.39443	3.23007	1	14	0.00919539	3.12354e-07	7.47474e-06	3.3136e-05	3.39686e-05	77.2881
1.10206	9166.97	40227.7	41259	-77.1628	27.7455	-0.0910613	-4.53442e-06	3.58996	3.41274	1	14	0.00919717	2.22913e-07	5.38504e-06	2.36314e-05	2.42372e-05	77.1628
0.745609	13018.8	56146.5	57636.1	-76.9454	33.4179	-0.0910597	-4.18324e-06	3.80177	3.6078	1	14	0.00919784	1.59585e-07	3.91905e-06	1.69018e-05	1.73502e-05	76.9454
0.503902	18290	78512	80614.3	-76.8864	41.7936	-0.0910573	-4.11082e-06	4.02288	3.8158	1	14	0.00919723	1.14089e-07	2.81442e-06	1.20813e-05	1.24047e-05	76.8864
0.340103	26265.9	109284	112396	-76.4855	54.1871	-0.0910637	-4.01426e-06	4.28207	4.04822	1	14	0.00919882	8.1843e-08	2.07918e-06	8.65076e-06	8.89712e-06	76.4855
0.230213	37285	152298	156795	-76.2436	72.4803	-0.0910586	-3.70034e-06	4.53938	4.2827	1	14	0.00919765	5.86602e-08	1.51659e-06	6.19479e-06	6.37774e-06	76.2436
0.155473	54074.6	211667	218465	-75.6692	99.5516	-0.0910599	-3.62051e-06	4.83629	4.53999	1	14	0.00919887	4.21067e-08	1.13299e-06	4.43495e-06	4.57738e-06	75.6692
0.105049	76143.1	294585	304266	-75.5076	139.601	-0.0910577	-3.38566e-06	5.14301	4.82093	1	14	0.00919678	3.02261e-08	8.22475e-07	3.18202e-06	3.2866e-06	75.5076
0.0710227	105573	407396	420853	-75.4719	198.822	-0.0910597	-3.7228e-06	5.50055	5.15441	1	14	0.00919684	2.18529e-08	5.96062e-07	2.30015e-06	2.37613e-06	75.4719
0.0479883	153475	564769	585251	-74.7971	286.453	-0.0910612	-2.57235e-06	5.87237	5.46854	1	14	0.00919717	1.57149e-08	4.48077e-07	1.64887e-06	1.70867e-06	74.7971
0.0324439	213137	786592	814957	-74.839	416.052	-0.091063	-2.76267e-06	6.23644	5.80988	1	14	0.00919824	1.12868e-08	3.20915e-07	1.18435e-06	1.22706e-06	74.839
0.0219206	294123	1.10191e+06	1.14049e+06	-75.055	607.853	-0.0910596	-1.7869e-06	6.58903	6.15081	1	14	0.00919762	8.06462e-09	2.26124e-07	8.47157e-07	8.76817e-07	75.055
0.0148076	418106	1.52654e+06	1.58276e+06	-74.6828	891.771	-0.0910659	-9.78267e-07	7.04088	6.54956	1	14	0.00919504	5.80949e-09	1.669e-07	6.09364e-07	6.31807e-07	74.6828
0.0100006	601798	2.10701e+06	2.19127e+06	-74.0598	1312.14	-0.091072	-6.12441e-07	7.55311	6.98342	1	14	0.00919658	4.19692e-09	1.25331e-07	4.38809e-07	4.56357e-07	74.0598