File: Python Codes/Alyssa_Old_Files/Functions.py/EIS Results/Blocking Cells/2023_06_21/0614_01_EIS_0.5MTFSI_Blocking_C01.mpt
EC-Lab ASCII FILE
Nb header lines : 62

Potentio Electrochemical Impedance Spectroscopy

Run on channel : 1 (SN 35512)
User :
CE vs. WE compliance from -10 V to 10 V
Electrode connection : standard
Ewe ctrl range : min = -5.00 V, max = 5.00 V
Safety Limits :
	Do not start on E overload
Acquisition started on : 06/14/2023 16:49:57
Technique started on : 06/14/2023 16:49:59
Saved on :
	File : 0614_01_EIS_0.5MTFSI_Blocking_C01.mpr
	Directory : C:\Users\CESL\Documents\EC-Lab\Data\PhD\Leifer\Results\Zn Ion GPE\2023\0614\
	Host : 10.110.196.171
Device : VSP (SN 1724)
Address : USB
EC-Lab for windows v11.16 (software)
Internet server v11.16 (firmware)
Command interpretor v11.16 (firmware)
Electrode material : Au/Pd
Initial state :
Electrolyte : NaCl (0.2M)
Comments : Fe(CN)63-/Fe(CN)64- 5.10-3 M
Reference electrode : SCE Saturated Calomel Electrode (0.241 V)
Electrode surface area : 0.001 cm²
Characteristic mass : 0.001 g
Equivalent Weight : 0.000 g/eq.
Density : 0.000 g/cm3
Cycle Definition : Charge/Discharge alternance
Mode                Single sine
E (V)               0.0000
vs.                 Eoc
tE (h:m:s)          0:00:0.0000
record              0
dI                  0.000
unit dI             mA
dt (s)              0.000
fi                  1.000
unit fi             MHz
ff                  10.000
unit ff             mHz
Nd                  6
Points              per decade
spacing             Logarithmic
Va (mV)             10.0
pw                  0.10
Na                  2
corr                1
E range min (V)     -5.000
E range max (V)     5.000
I Range             Auto
Bandwidth           5
nc cycles           0
goto Ns'            0
nr cycles           0
inc. cycle          0

freq/Hz	Re(Z)/Ohm	-Im(Z)/Ohm	|Z|/Ohm	Phase(Z)/deg	time/s	<Ewe>/V	<I>/mA	Cs/µF	Cp/µF	cycle number	I Range	|Ewe|/V	|I|/A	Re(Y)/Ohm-1	Im(Y)/Ohm-1	|Y|/Ohm-1	Phase(Y)/deg
1.00002e+06	-155.671	-112.258	191.925	144.204	2.48809	0.0904215	-0.000223203	-0.00141773	-0.000485027	1	11	0.000779292	4.06039e-06	-0.00422613	-0.00304757	0.00521036	-144.204
675752	48.8863	-4.52922	49.0957	5.29323	2.89709	0.0898494	-0.000230658	-0.0520007	-0.000442558	1	11	0.00159801	3.25488e-05	0.0202815	-0.00187904	0.0203684	-5.29323
456640	15.4925	-1.13077	15.5338	4.17449	4.18809	0.0898772	0.00586417	-0.308228	-0.0016333	1	10	0.0052144	0.000335682	0.0642051	-0.00468619	0.0643759	-4.17449
308574	10.9717	0.121493	10.9724	-0.634427	4.59708	0.089701	0.00789674	4.2453	0.000520486	1	10	0.00992049	0.000904131	0.0911322	0.00100913	0.0911378	0.634427
208525	9.67052	0.706014	9.69626	-4.17558	5.13809	0.0896396	0.00769162	1.08105	0.00573148	1	10	0.0101584	0.00104766	0.102859	0.0075094	0.103133	4.17558
140908	9.28977	1.16865	9.36299	-7.17012	5.67909	0.0896622	0.0094165	0.966495	0.015057	1	10	0.0101518	0.00108425	0.105968	0.0133308	0.106803	7.17012
95214.8	9.20916	1.68924	9.36281	-10.3942	6.0881	0.0896878	0.00874146	0.989518	0.0322103	1	10	0.0109156	0.00116584	0.105053	0.0192699	0.106806	10.3942
64345.7	9.24557	2.36365	9.54293	-14.3406	6.49708	0.0896789	0.00874706	1.04645	0.0641979	1	10	0.0108027	0.00113201	0.101524	0.025955	0.10479	14.3406
43476.5	9.39345	3.30955	9.95942	-19.4086	6.90609	0.0896771	0.00866688	1.10611	0.122142	1	10	0.0106186	0.00106618	0.0947016	0.0333657	0.100407	19.4086
29384.8	9.65501	4.64108	10.7126	-25.6732	7.3151	0.0896864	0.00895031	1.16702	0.219044	1	10	0.0105185	0.000981882	0.0841331	0.040442	0.0933484	25.6732
19853.5	10.0227	6.49573	11.9436	-32.9473	7.72409	0.0896698	0.0070949	1.23411	0.365039	1	10	0.0103173	0.000863838	0.0702611	0.0455362	0.0837267	32.9473
13418	10.5316	9.08936	13.9115	-40.7961	8.13309	0.0896834	0.00818576	1.30497	0.55708	1	10	0.0101008	0.000726078	0.0544182	0.0469661	0.0718829	40.7961
9082.03	11.1991	12.7548	16.9736	-48.7161	8.43033	0.0896831	0.00886079	1.37392	0.775821	1	10	0.0099586	0.000586709	0.0388715	0.0442715	0.0589148	48.7161
6140.96	12.0425	17.9779	21.6386	-56.184	8.83363	0.0896947	0.00892419	1.4416	0.995102	1	10	0.00963372	0.000445211	0.0257193	0.0383958	0.0462138	56.184
4141.32	13.2424	25.5142	28.746	-62.5697	9.29867	0.0897415	0.0110127	1.50626	1.18661	1	10	0.00938749	0.000326567	0.0160255	0.0308764	0.0347874	62.5697
2797.31	15.017	36.4238	39.398	-67.5944	10.0169	0.0897058	0.0010302	1.56205	1.33511	1	11	0.0102756	0.000260816	0.00967463	0.0234659	0.025382	67.5944
1890.6	17.5379	51.8615	54.7466	-71.3161	10.4817	0.0897088	0.00099179	1.62321	1.45663	1	11	0.00964922	0.000176252	0.00585144	0.0173034	0.018266	71.3161
1287.12	21.1643	73.3281	76.3213	-73.9005	10.9482	0.0897083	0.000972959	1.68629	1.55662	1	11	0.00935107	0.000122523	0.0036334	0.0125887	0.0131025	73.9005
863.066	26.6383	104.854	108.185	-75.7455	11.4152	0.0897129	0.00086986	1.7587	1.65207	1	11	0.00919495	8.4993e-05	0.00227601	0.00895886	0.00924345	75.7455
583.692	34.9915	148.919	152.975	-76.7771	11.8822	0.0897065	0.000843945	1.83099	1.73519	1	11	0.00913493	5.97152e-05	0.00149528	0.00636371	0.00653702	76.7771
394.117	47.5038	210.604	215.895	-77.2891	12.3492	0.0897124	0.000887756	1.91747	1.82464	1	11	0.00909793	4.21406e-05	0.00101917	0.00451837	0.00463189	77.2891
266.449	66.7512	299.96	307.298	-77.4542	13.0647	0.0897144	4.98872e-05	1.99132	1.89736	1	12	0.00921019	2.99716e-05	0.000706872	0.00317647	0.00325417	77.4542
180.058	96.7557	422.611	433.546	-77.1045	13.5297	0.0897152	4.76677e-05	2.09155	1.98737	1	12	0.00913614	2.10731e-05	0.000514762	0.00224839	0.00230656	77.1045
121.595	142.378	594.1	610.923	-76.5231	13.9901	0.0897175	5.73282e-05	2.20315	2.08349	1	12	0.00910549	1.49045e-05	0.000381478	0.00159179	0.00163687	76.5231
82.2368	210.749	827.709	854.118	-75.715	14.4453	0.0897176	2.88868e-05	2.33817	2.19582	1	12	0.00908248	1.06337e-05	0.000288888	0.0011346	0.0011708	75.715
55.5152	317.51	1144.62	1187.84	-74.4963	14.9069	0.0897162	6.26619e-05	2.50465	2.3257	1	12	0.0090716	7.63706e-06	0.00022503	0.000811231	0.000841864	74.4963
37.5601	468.459	1571.12	1639.47	-73.397	15.3987	0.0897146	6.88723e-05	2.69702	2.47682	1	12	0.00907501	5.53532e-06	0.000174287	0.000584522	0.000609953	73.397
25.3653	685.765	2155.71	2262.16	-72.3533	16.1079	0.0897111	8.31865e-06	2.91066	2.64317	1	13	0.00908417	4.01571e-06	0.000134008	0.000421255	0.000442056	72.3533
17.1327	996.347	2916.57	3082.06	-71.139	16.5228	0.0897057	1.06031e-05	3.1851	2.85224	1	13	0.00907995	2.94606e-06	0.000104889	0.000307037	0.000324458	71.139
11.5912	1440.78	3920.72	4177.07	-69.8228	16.9323	0.0897017	8.97878e-06	3.50206	3.08541	1	13	0.0090665	2.17054e-06	8.25759e-05	0.00022471	0.000239402	69.8228
7.82815	2013.68	5249.29	5622.27	-69.0127	17.5143	0.0897087	9.19602e-06	3.87311	3.37627	1	13	0.00906801	1.61287e-06	6.3704e-05	0.000166064	0.000177864	69.0127
5.29302	2785.45	6991.81	7526.23	-68.2783	18.3507	0.0897089	1.18346e-05	4.30058	3.71151	1	13	0.00907204	1.20539e-06	4.91745e-05	0.000123434	0.000132869	68.2783
3.57551	3733.07	9310.64	10031.1	-68.1518	20.1743	0.0897097	3.73053e-06	4.78082	4.1187	1	14	0.00907466	9.04648e-07	3.70993e-05	9.25291e-05	9.96895e-05	68.1518
2.41723	4862.39	12392.2	13312	-68.5762	21.9515	0.089716	7.18435e-06	5.31316	4.60429	1	14	0.00907298	6.81563e-07	2.74387e-05	6.99297e-05	7.51202e-05	68.5762
1.63271	6170.59	16680.9	17785.7	-69.6996	24.5624	0.0897162	5.93397e-06	5.84375	5.14035	1	14	0.00907032	5.09979e-07	1.95068e-05	5.27327e-05	5.62251e-05	69.6996
1.10206	7744.73	22684.6	23970.2	-71.1496	28.4114	0.0897129	5.38513e-06	6.36626	5.70167	1	14	0.00907209	3.78474e-07	1.34792e-05	3.94809e-05	4.17184e-05	71.1496
0.745609	9492.76	31159.4	32573.3	-73.0565	34.0831	0.0897163	5.38085e-06	6.85047	6.26866	1	14	0.00907123	2.78487e-07	8.94683e-06	2.93674e-05	3.07e-05	73.0565
0.503902	11664.6	43517.8	45054	-74.995	42.459	0.089715	5.34209e-06	7.25783	6.77133	1	14	0.00906918	2.01296e-07	5.74651e-06	2.14388e-05	2.21956e-05	74.995
0.340103	14347.8	61515	63166.1	-76.871	54.8524	0.0897169	4.99139e-06	7.60728	7.21478	1	14	0.00906948	1.43582e-07	3.596e-06	1.54175e-05	1.58313e-05	76.871
0.230213	18139.2	87233.3	89099.2	-78.2534	73.1457	0.0897149	4.68598e-06	7.92517	7.5967	1	14	0.00907001	1.01797e-07	2.28492e-06	1.09884e-05	1.12234e-05	78.2534
0.155473	23650.4	124715	126938	-79.2622	100.217	0.0897142	4.31084e-06	8.2082	7.92326	1	14	0.00907053	7.14566e-08	1.46777e-06	7.73995e-06	7.87789e-06	79.2622
0.105049	31841.7	178399	181219	-79.8801	140.266	0.0897176	4.20075e-06	8.49248	8.23029	1	14	0.00907073	5.0054e-08	9.69594e-07	5.43234e-06	5.51819e-06	79.8801
0.0710227	43268	255192	258834	-80.3769	199.487	0.089723	4.17996e-06	8.78125	8.53587	1	14	0.0090717	3.50484e-08	6.45842e-07	3.80912e-06	3.86349e-06	80.3769
0.0479883	60708.4	365091	370104	-80.5591	287.118	0.0897274	3.33966e-06	9.08412	8.8397	1	14	0.00906991	2.45063e-08	4.432e-07	2.66534e-06	2.70194e-06	80.5591
0.0324439	91524.7	519898	527893	-80.0157	416.718	0.0897273	3.29632e-06	9.43558	9.15195	1	14	0.00907019	1.71819e-08	3.28433e-07	1.86564e-06	1.89432e-06	80.0157
0.0219206	135222	743049	755253	-79.686	608.519	0.0897297	2.99937e-06	9.77125	9.45802	1	14	0.00906834	1.2007e-08	2.37063e-07	1.30266e-06	1.32406e-06	79.686
0.0148076	204641	1.06596e+06	1.08543e+06	-79.1327	892.437	0.0897207	2.76293e-06	10.0831	9.72468	1	14	0.00906925	8.35547e-09	1.73697e-07	9.04775e-07	9.21297e-07	79.1327
0.0100006	307005	1.514e+06	1.54481e+06	-78.5371	1312.81	0.0897082	2.60301e-06	10.5116	10.0964	1	14	0.00906914	5.87071e-09	1.28645e-07	6.34416e-07	6.47328e-07	78.5371