File: Python Codes/Alyssa_Old_Files/Functions.py/EIS Results/Blocking Cells/2023_06_21/0614_01_EIS_0.5MTFSI_Blocking_Redone_6_21_23_C01.mpt
EC-Lab ASCII FILE
Nb header lines : 62

Potentio Electrochemical Impedance Spectroscopy

Run on channel : 1 (SN 35512)
User :
CE vs. WE compliance from -10 V to 10 V
Electrode connection : standard
Ewe ctrl range : min = -5.00 V, max = 5.00 V
Safety Limits :
	Do not start on E overload
Acquisition started on : 06/21/2023 15:53:28
Technique started on : 06/21/2023 15:53:30
Saved on :
	File : 0614_01_EIS_0.5MTFSI_Blocking_Redone_6_21_23_C01.mpr
	Directory : C:\Users\CESL\Documents\EC-Lab\Data\PhD\Leifer\Results\Zn Ion GPE\2023\0614\
	Host : 10.110.196.171
Device : VSP (SN 17241724)
Address : USB
EC-Lab for windows v11.16 (software)
Internet server v11.16 (firmware)
Command interpretor v11.16 (firmware)
Electrode material : Au/Pd
Initial state :
Electrolyte : NaCl (0.2M)
Comments : Fe(CN)63-/Fe(CN)64- 5.10-3 M
Reference electrode : SCE Saturated Calomel Electrode (0.241 V)
Electrode surface area : 0.001 cm²
Characteristic mass : 0.001 g
Equivalent Weight : 0.000 g/eq.
Density : 0.000 g/cm3
Cycle Definition : Charge/Discharge alternance
Mode                Single sine
E (V)               0.0000
vs.                 Eoc
tE (h:m:s)          0:00:0.0000
record              0
dI                  0.000
unit dI             mA
dt (s)              0.000
fi                  1.000
unit fi             MHz
ff                  10.000
unit ff             mHz
Nd                  6
Points              per decade
spacing             Logarithmic
Va (mV)             10.0
pw                  0.10
Na                  2
corr                1
E range min (V)     -5.000
E range max (V)     5.000
I Range             Auto
Bandwidth           5
nc cycles           0
goto Ns'            0
nr cycles           0
inc. cycle          0

freq/Hz	Re(Z)/Ohm	-Im(Z)/Ohm	|Z|/Ohm	Phase(Z)/deg	time/s	<Ewe>/V	<I>/mA	Cs/µF	Cp/µF	cycle number	I Range	|Ewe|/V	|I|/A	Re(Y)/Ohm-1	Im(Y)/Ohm-1	|Y|/Ohm-1	Phase(Y)/deg
1.00002e+06	-76.3526	-18.6422	78.5955	166.279	2.48709	0.0298087	0.00052943	-0.00853719	-0.000480301	1	11	0.000411339	5.23362e-06	-0.0123603	-0.00301788	0.0127234	-166.279
675752	34.2617	-5.08294	34.6367	8.43863	2.89608	0.0291937	1.17056e-05	-0.0463359	-0.00099787	1	11	0.00109271	3.15477e-05	0.0285585	-0.00423683	0.0288711	-8.43863
456640	14.7321	-0.841232	14.7561	3.26815	4.18708	0.0292808	0.00743987	-0.414314	-0.00134653	1	10	0.00480111	0.000325364	0.0676583	-0.00386342	0.0677685	-3.26815
308574	11.1308	0.137621	11.1317	-0.708369	4.5961	0.0290538	0.00788369	3.74778	0.000572831	1	10	0.00996424	0.000895126	0.089827	0.00111062	0.0898338	0.708369
208525	10.0006	0.619296	10.0198	-3.54357	5.13709	0.0290153	0.0074548	1.23243	0.00470809	1	10	0.0101387	0.00101187	0.0996119	0.00616856	0.0998027	3.54357
140908	9.63974	1.00714	9.6922	-5.96452	5.67708	0.0290532	0.00883284	1.12148	0.0121096	1	10	0.0100955	0.00104161	0.102617	0.0107213	0.103176	5.96452
95214.8	9.54597	1.44647	9.65494	-8.61632	6.08609	0.0290642	0.00804965	1.15559	0.0259374	1	10	0.010831	0.00112181	0.102405	0.0155171	0.103574	8.61632
64345.7	9.56977	2.04372	9.78557	-12.055	6.4941	0.0290559	0.00942396	1.21026	0.0527898	1	10	0.0107288	0.0010964	0.0999378	0.0213427	0.102191	12.055
43476.5	9.68926	2.88211	10.1088	-16.5653	6.9031	0.029058	0.00830139	1.27015	0.103246	1	10	0.0106334	0.00105189	0.0948177	0.0282039	0.0989235	16.5653
29384.8	9.91071	4.05466	10.7081	-22.2504	7.31209	0.0290626	0.00842632	1.33581	0.191527	1	10	0.0105401	0.000984319	0.0864338	0.0353617	0.0933876	22.2504
19853.5	10.2445	5.69273	11.7199	-29.0604	7.72109	0.0290629	0.0082585	1.40819	0.332241	1	10	0.0103633	0.000884248	0.0745831	0.0414448	0.0853247	29.0604
13418	10.7094	7.98115	13.3563	-36.6952	8.12909	0.0290701	0.00862584	1.48617	0.530675	1	10	0.0101412	0.000759284	0.0600336	0.0447399	0.0748712	36.6952
9082.03	11.3358	11.1485	15.8994	-44.5228	8.42635	0.0290631	0.00833681	1.57188	0.772849	1	10	0.0102404	0.000644076	0.0448427	0.0441019	0.0628955	44.5228
6140.96	12.0951	15.7257	19.8391	-52.4351	8.82963	0.0290707	0.00826781	1.64806	1.0355	1	10	0.00993418	0.000500738	0.0307302	0.0399547	0.0504056	52.4351
4141.32	13.1792	22.2924	25.8968	-59.4085	9.2957	0.0291059	0.0110313	1.72395	1.27746	1	10	0.00963102	0.0003719	0.0196516	0.0332403	0.0386148	59.4085
2797.31	14.677	31.5982	34.8405	-65.0857	9.76193	0.0290986	0.0111227	1.8006	1.48106	1	10	0.0094316	0.000270708	0.0120912	0.0260312	0.0287023	65.0857
1890.6	16.7878	45.1901	48.2077	-69.6203	10.4797	0.0290752	0.000943691	1.86284	1.63693	1	11	0.00988862	0.000205125	0.00722374	0.0194451	0.0207436	69.6203
1287.12	19.8576	63.8934	66.9081	-72.7351	10.9462	0.02908	0.000971468	1.93529	1.76482	1	11	0.00953701	0.000142539	0.00443579	0.0142725	0.0149459	72.7351
863.066	24.539	91.5758	94.8066	-74.9992	11.4132	0.0290798	0.000825489	2.0137	1.8788	1	11	0.00936364	9.87657e-05	0.0027301	0.0101883	0.0105478	74.9992
583.692	31.2963	130.17	133.879	-76.4811	11.8802	0.0290735	0.000914044	2.09472	1.98025	1	11	0.00927942	6.93119e-05	0.00174609	0.00726247	0.00746942	76.4811
394.117	42.0656	184.603	189.336	-77.1632	12.3472	0.0290737	0.000826979	2.18754	2.07956	1	11	0.00923629	4.87826e-05	0.00117344	0.00514962	0.00528163	77.1632
266.449	58.0286	263.1	269.423	-77.5621	13.0626	0.0290853	7.82355e-05	2.27031	2.16499	1	12	0.00936623	3.4764e-05	0.000799413	0.00362452	0.00371163	77.5621
180.058	82.5707	372.264	381.311	-77.4939	13.5277	0.0290821	6.21588e-05	2.37442	2.26308	1	12	0.00927949	2.43357e-05	0.000567892	0.0025603	0.00262253	77.4939
121.595	120.895	524.335	538.091	-77.0163	13.9881	0.0290844	5.15468e-05	2.49629	2.37028	1	12	0.00924148	1.71745e-05	0.000417537	0.00181091	0.00185842	77.0163
82.2368	180.13	733.099	754.905	-76.1953	14.4433	0.0290828	3.86035e-05	2.63992	2.48962	1	12	0.00921623	1.22085e-05	0.000316083	0.00128641	0.00132467	76.1953
55.5152	268.825	1015.87	1050.83	-75.1778	14.9059	0.0290818	2.50635e-05	2.82209	2.6374	1	12	0.00920847	8.76301e-06	0.000243445	0.000919958	0.000951624	75.1778
37.5601	404.582	1404.46	1461.57	-73.9299	15.3968	0.0290855	6.82289e-05	3.01706	2.78588	1	12	0.00921304	6.30352e-06	0.000189394	0.000657459	0.000684195	73.9299
25.3653	596.453	1925.39	2015.66	-72.7879	16.1059	0.0290787	9.81804e-06	3.25884	2.97349	1	13	0.00921538	4.5719e-06	0.000146806	0.000473898	0.000496116	72.7879
17.1327	876.807	2620.28	2763.09	-71.4985	16.5188	0.0290783	-3.35188e-06	3.54526	3.18826	1	13	0.00921718	3.33583e-06	0.000114846	0.000343209	0.000361914	71.4985
11.5912	1255.51	3532.78	3749.24	-70.4353	16.9283	0.0290682	2.85073e-06	3.88664	3.45079	1	13	0.00921095	2.45675e-06	8.9317e-05	0.000251321	0.00026672	70.4353
7.82815	1786.47	4728.32	5054.56	-69.3022	17.5103	0.0290821	5.06248e-06	4.29985	3.76272	1	13	0.00920766	1.82165e-06	6.99247e-05	0.000185072	0.000197841	69.3022
5.29302	2440.86	6287.58	6744.74	-68.7836	18.3467	0.0290805	6.35425e-06	4.78226	4.15595	1	13	0.00921087	1.36564e-06	5.36554e-05	0.000138214	0.000148264	68.7836
3.57551	3329.35	8382.11	9019.11	-68.3372	20.1704	0.0290842	1.33441e-06	5.31041	4.58678	1	14	0.00921016	1.02118e-06	4.09291e-05	0.000103045	0.000110876	68.3372
2.41723	4368.6	11221.7	12042.1	-68.7291	21.9466	0.0290852	1.72645e-06	5.86735	5.09516	1	14	0.00920792	7.64645e-07	3.01258e-05	7.73849e-05	8.30421e-05	68.7291
1.63271	5698.01	15070.2	16111.4	-69.2884	24.5575	0.0290848	5.76654e-07	6.46836	5.65931	1	14	0.00920609	5.71402e-07	2.19511e-05	5.80566e-05	6.20679e-05	69.2884
1.10206	7217.43	20397.4	21636.6	-70.5141	28.4065	0.0290887	9.40461e-07	7.08013	6.29231	1	14	0.00920772	4.25562e-07	1.54171e-05	4.35707e-05	4.62179e-05	70.5141
0.745609	9029.97	27819.5	29248.4	-72.017	34.0789	0.0290833	1.0216e-06	7.67289	6.94154	1	14	0.00920614	3.14758e-07	1.05556e-05	3.25197e-05	3.419e-05	72.017
0.503902	10984.4	38508.8	40044.8	-74.0795	42.4548	0.0290855	1.11932e-06	8.20189	7.58476	1	14	0.00920585	2.29889e-07	6.84992e-06	2.40142e-05	2.49721e-05	74.0795
0.340103	13539.7	54010.1	55681.3	-75.9267	54.8482	0.029082	1.03747e-06	8.66433	8.15203	1	14	0.00920528	1.65321e-07	4.36705e-06	1.74203e-05	1.79593e-05	75.9267
0.230213	16647	76430.3	78222.2	-77.7125	73.1415	0.029082	8.33098e-07	9.04535	8.63568	1	14	0.00920396	1.17664e-07	2.72067e-06	1.24912e-05	1.27841e-05	77.7125
0.155473	21043.9	108839	110855	-79.0569	100.213	0.029082	9.24412e-07	9.40551	9.06656	1	14	0.00920361	8.30242e-08	1.71245e-06	8.85679e-06	9.02083e-06	79.0569
0.105049	27102.5	155753	158093	-80.1288	140.262	0.0290823	9.75932e-07	9.72729	9.44141	1	14	0.00920316	5.82134e-08	1.08438e-06	6.23173e-06	6.32538e-06	80.1288
0.0710227	36367.8	222741	225690	-80.7269	199.483	0.0290855	7.6982e-07	10.0606	9.79935	1	14	0.00920497	4.07859e-08	7.13991e-07	4.37295e-06	4.43085e-06	80.7269
0.0479883	50257.2	319886	323810	-81.0713	287.114	0.0290734	1.75042e-06	10.3678	10.1181	1	14	0.00920402	2.84241e-08	4.7931e-07	3.0508e-06	3.08823e-06	81.0713
0.0324439	70857.8	459153	464589	-81.2272	416.714	0.0290853	1.28463e-06	10.6839	10.4354	1	14	0.00920411	1.98113e-08	3.28284e-07	2.12726e-06	2.15244e-06	81.2272
0.0219206	103177	656961	665014	-81.0745	608.515	0.0290701	1.39489e-06	11.0517	10.7856	1	14	0.00920361	1.38397e-08	2.33303e-07	1.48552e-06	1.50373e-06	81.0745
0.0148076	152227	941188	953419	-80.8126	892.433	0.0290774	4.58917e-07	11.4198	11.1287	1	14	0.00920364	9.6533e-09	1.67465e-07	1.0354e-06	1.04886e-06	80.8126
0.0100006	232535	1.34203e+06	1.36203e+06	-80.1699	1312.8	0.0290861	8.14224e-07	11.8585	11.5128	1	14	0.00920373	6.75736e-09	1.25347e-07	7.23419e-07	7.34198e-07	80.1699