File: Python Codes/Alyssa_Old_Files/Functions.py/EIS Results/Blocking Cells/2023_06_21/0614_01_EIS_0.5MTFSI_Blocking_Remelt_Initial_Test_6_21_23_Test2_C01.mpt
EC-Lab ASCII FILE
Nb header lines : 62

Potentio Electrochemical Impedance Spectroscopy

Run on channel : 1 (SN 35512)
User :
CE vs. WE compliance from -10 V to 10 V
Electrode connection : standard
Ewe ctrl range : min = -5.00 V, max = 5.00 V
Safety Limits :
	Do not start on E overload
Acquisition started on : 06/21/2023 17:11:31
Technique started on : 06/21/2023 17:11:33
Saved on :
	File : 0614_01_EIS_0.5MTFSI_Blocking_Remelt_Initial_Test_6_21_23_Test2_C01.mpr
	Directory : C:\Users\CESL\Documents\EC-Lab\Data\PhD\Leifer\Results\Zn Ion GPE\2023\0614\
	Host : 10.110.196.171
Device : VSP (SN 172417241724)
Address : USB
EC-Lab for windows v11.16 (software)
Internet server v11.16 (firmware)
Command interpretor v11.16 (firmware)
Electrode material : Au/Pd
Initial state :
Electrolyte : NaCl (0.2M)
Comments : Fe(CN)63-/Fe(CN)64- 5.10-3 M
Reference electrode : SCE Saturated Calomel Electrode (0.241 V)
Electrode surface area : 0.001 cm²
Characteristic mass : 0.001 g
Equivalent Weight : 0.000 g/eq.
Density : 0.000 g/cm3
Cycle Definition : Charge/Discharge alternance
Mode                Single sine
E (V)               0.0000
vs.                 Eoc
tE (h:m:s)          0:00:0.0000
record              0
dI                  0.000
unit dI             mA
dt (s)              0.000
fi                  1.000
unit fi             MHz
ff                  10.000
unit ff             mHz
Nd                  6
Points              per decade
spacing             Logarithmic
Va (mV)             10.0
pw                  0.10
Na                  2
corr                1
E range min (V)     -5.000
E range max (V)     5.000
I Range             Auto
Bandwidth           5
nc cycles           0
goto Ns'            0
nr cycles           0
inc. cycle          0

freq/Hz	Re(Z)/Ohm	-Im(Z)/Ohm	|Z|/Ohm	Phase(Z)/deg	time/s	<Ewe>/V	<I>/mA	Cs/µF	Cp/µF	cycle number	I Range	|Ewe|/V	|I|/A	Re(Y)/Ohm-1	Im(Y)/Ohm-1	|Y|/Ohm-1	Phase(Y)/deg
1.00002e+06	77.5227	1.67617	77.5408	-1.23864	2.48709	-0.00678509	-0.00127581	0.0949494	4.43681e-05	1	11	0.000437879	5.64708e-06	0.0128934	0.000278778	0.0128964	1.23864
675752	70.8025	-0.0936939	70.8026	0.0758202	2.8961	-0.00734295	0.000481892	-2.51375	-4.40196e-06	1	11	0.00212912	3.00713e-05	0.0141238	-1.86902e-05	0.0141238	-0.0758202
456640	38.44	-0.0990316	38.4401	0.147609	3.30508	-0.00722118	0.000680633	-3.51943	-2.33588e-05	1	11	0.0065061	0.000169253	0.0260144	-6.70201e-05	0.0260145	-0.147609
308574	31.7561	0.908667	31.7691	-1.63901	4.1401	-0.00742048	0.0120122	0.567618	0.00046436	1	10	0.00985298	0.000310143	0.0314642	0.000900315	0.0314771	1.63901
208525	29.4086	1.08217	29.4285	-2.10741	4.68108	-0.00743553	0.0119749	0.705285	0.000953719	1	10	0.0101393	0.000344541	0.0339576	0.00124957	0.0339806	2.10741
140908	28.5392	1.31633	28.5696	-2.64082	5.2221	-0.00742815	0.0114285	0.858061	0.00182156	1	10	0.0101105	0.000353892	0.0349651	0.00161272	0.0350023	2.64082
95214.8	28.2058	1.76434	28.2609	-3.57932	5.6311	-0.00742988	0.0120308	0.947402	0.00369253	1	10	0.0106161	0.000375644	0.0353155	0.00220906	0.0353845	3.57932
64345.7	28.1502	2.37315	28.2501	-4.81881	6.03909	-0.0074337	0.0128494	1.04226	0.00735506	1	10	0.0104548	0.000370082	0.035273	0.00297362	0.0353981	4.81881
43476.5	28.2385	3.24377	28.4242	-6.55287	6.4481	-0.00742071	0.0123124	1.12853	0.0146973	1	10	0.0103217	0.000363132	0.0349515	0.00401489	0.0351813	6.55287
29384.8	28.384	4.51783	28.7413	-9.04379	6.85709	-0.00744247	0.0119618	1.19886	0.029622	1	10	0.01023	0.000355933	0.0343606	0.00546911	0.0347931	9.04379
19853.5	28.7135	6.29517	29.3955	-12.3659	7.26608	-0.0074343	0.0118089	1.27343	0.0584021	1	10	0.0101154	0.000344114	0.0332295	0.00728527	0.0340188	12.3659
13418	29.1204	8.82158	30.4272	-16.8534	7.54309	-0.00744646	0.0118332	1.34458	0.11302	1	10	0.0105075	0.000345331	0.0314537	0.00952842	0.0328653	16.8534
9082.03	29.6544	12.5187	32.1885	-22.8872	7.83935	-0.00744735	0.0108393	1.39984	0.211736	1	10	0.0106821	0.000331862	0.0286212	0.0120825	0.031067	22.8872
6140.96	30.3821	17.7419	35.183	-30.2832	8.24265	-0.00745125	0.00890554	1.46078	0.371465	1	10	0.01073	0.000304976	0.0245443	0.0143329	0.0284228	30.2832
4141.32	31.4993	25.4306	40.4837	-38.9153	9.18368	-0.00744088	0.00143196	1.51121	0.596319	1	11	0.0101279	0.000250173	0.0192195	0.0155167	0.0247013	38.9153
2797.31	32.9585	36.375	49.0857	-47.821	9.64993	-0.00744678	0.00146645	1.56414	0.858958	1	11	0.00988424	0.000201367	0.0136791	0.0150971	0.0203725	47.821
1890.6	35.017	52.1264	62.7961	-56.1079	10.1147	-0.00744364	0.00141965	1.61496	1.11279	1	11	0.00961698	0.000153146	0.00888002	0.0132188	0.0159246	56.1079
1287.12	37.9035	74.0952	83.2273	-62.9079	10.5812	-0.00744513	0.00140064	1.66883	1.3227	1	11	0.00942608	0.000113257	0.00547202	0.0106969	0.0120153	62.9079
863.066	42.3478	106.891	114.974	-68.3877	11.0482	-0.00744842	0.00132457	1.72518	1.49113	1	11	0.00931969	8.10588e-05	0.00320353	0.00808613	0.00869759	68.3877
583.692	48.9413	152.901	160.543	-72.2509	11.5152	-0.0074385	0.00130481	1.78331	1.61758	1	11	0.00925962	5.7677e-05	0.00189887	0.00593239	0.00622888	72.2509
394.117	58.1167	218.613	226.207	-75.1127	11.9822	-0.00744599	0.00136018	1.84722	1.72529	1	11	0.00922181	4.07672e-05	0.00113577	0.00427235	0.00442074	75.1127
266.449	72.6839	314	322.303	-76.9669	12.6976	-0.00745287	0.000100149	1.90228	1.80554	1	12	0.00933534	2.89645e-05	0.000699698	0.00302275	0.00310267	76.9669
180.058	93.9522	448.385	458.123	-78.1658	13.1627	-0.00745084	9.9552e-05	1.97132	1.88841	1	12	0.0092622	2.02177e-05	0.000447655	0.00213643	0.00218282	78.1658
121.595	124.695	640.794	652.814	-78.9881	13.6231	-0.0074527	9.04692e-05	2.04261	1.96808	1	12	0.00922913	1.41375e-05	0.000292598	0.00150363	0.00153183	78.9881
82.2368	174.228	910.928	927.44	-79.1721	14.0783	-0.0074541	8.93501e-05	2.12457	2.04959	1	12	0.00921417	9.93506e-06	0.000202557	0.00105904	0.00107824	79.1721
55.5152	248.515	1294.21	1317.85	-79.1303	14.5399	-0.00744922	8.8604e-05	2.21516	2.13638	1	12	0.00920807	6.98719e-06	0.000143094	0.000745197	0.000758811	79.1303
37.5601	353.155	1835.43	1869.1	-79.1088	15.2958	-0.00744921	7.78905e-06	2.30864	2.22622	1	13	0.00923299	4.93981e-06	0.000101088	0.000525381	0.000535018	79.1088
25.3653	503.888	2590.21	2638.77	-78.9914	15.7549	-0.00744793	1.58938e-05	2.4224	2.33407	1	13	0.00921735	3.49305e-06	7.23655e-05	0.000371991	0.000378965	78.9914
17.1327	735.079	3659.18	3732.28	-78.6412	16.1688	-0.00746029	5.89797e-06	2.5387	2.44022	1	13	0.00920804	2.46713e-06	5.27698e-05	0.000262685	0.000267933	78.6412
11.5912	1060.01	5129.44	5237.83	-78.3241	16.5783	-0.00746788	3.79808e-06	2.67682	2.56719	1	13	0.00920256	1.75694e-06	3.86373e-05	0.000186968	0.000190919	78.3241
7.82815	1533.07	7195.99	7357.48	-77.9733	17.1593	-0.00745467	5.36364e-07	2.82534	2.70267	1	13	0.00920379	1.25094e-06	2.83206e-05	0.000132933	0.000135916	77.9733
5.29302	2207.92	10119.1	10357.1	-77.6913	18.4227	-0.00744834	-9.52245e-07	2.9715	2.83646	1	14	0.00920889	8.89135e-07	2.05827e-05	9.43324e-05	9.65518e-05	77.6913
3.57551	3147.28	14153.1	14498.8	-77.4629	19.6373	-0.00744142	3.31105e-08	3.14508	2.99688	1	14	0.00919984	6.34525e-07	1.49717e-05	6.73267e-05	6.89713e-05	77.4629
2.41723	4525.09	19792.1	20302.8	-77.1218	21.4145	-0.0074384	1.90289e-06	3.32666	3.16141	1	14	0.00920222	4.53248e-07	1.09778e-05	4.80153e-05	4.92542e-05	77.1218
1.63271	6421.25	27577.5	28315.2	-76.8926	24.0254	-0.0074426	5.84104e-07	3.53474	3.35296	1	14	0.00920137	3.24963e-07	8.00905e-06	3.43966e-05	3.53168e-05	76.8926
1.10206	8980.44	38567.8	39599.6	-76.8924	27.8744	-0.00744475	5.32978e-07	3.74447	3.55189	1	14	0.00920007	2.32328e-07	5.72686e-06	2.45949e-05	2.52528e-05	76.8924
0.745609	12656.4	53815.3	55283.6	-76.7656	33.5462	-0.00744463	9.87984e-07	3.96646	3.75857	1	14	0.009199	1.66397e-07	4.14112e-06	1.76082e-05	1.80886e-05	76.7656
0.503902	17899.9	75206.7	77307.5	-76.6121	41.922	-0.0074451	1.01115e-06	4.19969	3.97454	1	14	0.00920101	1.19018e-07	2.99508e-06	1.25838e-05	1.29354e-05	76.6121
0.340103	25269.1	104798	107801	-76.4435	54.3155	-0.00744272	8.84837e-07	4.46536	4.22001	1	14	0.00920085	8.535e-08	2.1744e-06	9.01787e-06	9.27631e-06	76.4435
0.230213	35305.9	145834	150047	-76.3907	72.6087	-0.00744516	7.2749e-07	4.74059	4.47812	1	14	0.00919913	6.13084e-08	1.56817e-06	6.47746e-06	6.66459e-06	76.3907
0.155473	50001.8	202937	209006	-76.1586	99.6799	-0.00744406	7.60804e-07	5.04434	4.75563	1	14	0.00919888	4.40124e-08	1.14463e-06	4.6456e-06	4.78454e-06	76.1586
0.105049	70129.6	282626	291197	-76.0644	139.729	-0.00744828	7.71843e-07	5.36062	5.04971	1	14	0.00920045	3.15953e-08	8.2704e-07	3.33302e-06	3.4341e-06	76.0644
0.0710227	97788.2	391286	403320	-75.9683	198.95	-0.00744243	1.10175e-06	5.72702	5.39035	1	14	0.0091982	2.28062e-08	6.01155e-07	2.40544e-06	2.47942e-06	75.9683
0.0479883	137569	544818	561918	-75.8288	286.581	-0.00745015	1.06457e-06	6.08742	5.72256	1	14	0.00919986	1.63723e-08	4.35688e-07	1.72546e-06	1.77962e-06	75.8288
0.0324439	190641	759819	783371	-75.9151	416.181	-0.00744638	4.16676e-07	6.45619	6.07383	1	14	0.00919833	1.1742e-08	3.10657e-07	1.23816e-06	1.27653e-06	75.9151
0.0219206	266931	1.06443e+06	1.09739e+06	-75.922	607.982	-0.00745223	3.17248e-07	6.82104	6.41747	1	14	0.00920197	8.38533e-09	2.21655e-07	8.83885e-07	9.11254e-07	75.922
0.0148076	387185	1.49139e+06	1.54083e+06	-75.4465	891.9	-0.00745138	-1.57396e-07	7.20681	6.75175	1	14	0.00920004	5.97083e-09	1.63083e-07	6.28176e-07	6.49e-07	75.4465
0.0100006	563011	2.07928e+06	2.15416e+06	-74.8492	1312.27	-0.00745314	-2.87315e-07	7.65383	7.13101	1	14	0.00919901	4.27035e-09	1.21328e-07	4.48083e-07	4.64218e-07	74.8492