File: Python Codes/Alyssa_Old_Files/Functions.py/EIS Results/EIS_2023_07_08_Temp_In_Out_GB/0708_01_EIS_0.5MTFSI_SymCell_OutsideGB_sanded_60C_overnight_C04.mpt
EC-Lab ASCII FILE
Nb header lines : 62

Potentio Electrochemical Impedance Spectroscopy

Run on channel : 4 (SN 35517)
User :
CE vs. WE compliance from -10 V to 10 V
Electrode connection : standard
Ewe ctrl range : min = -5.00 V, max = 5.00 V
Safety Limits :
	Do not start on E overload
Acquisition started on : 07/10/2023 07:23:32
Technique started on : 07/10/2023 07:23:34
Saved on :
	File : 0708_01_EIS_0.5MTFSI_SymCell_OutsideGB_sanded_60C_overnight_C04.mpr
	Directory : C:\Users\CESL\Documents\EC-Lab\Data\PhD\Leifer\Results\Zn Ion GPE\2023\0708\
	Host : 10.110.196.171
Device : VSP (SN 1724172417241724)
Address : USB
EC-Lab for windows v11.16 (software)
Internet server v11.16 (firmware)
Command interpretor v11.16 (firmware)
Electrode material : Au/Pd
Initial state :
Electrolyte : NaCl (0.2M)
Comments : Fe(CN)63-/Fe(CN)64- 5.10-3 M
Reference electrode : SCE Saturated Calomel Electrode (0.241 V)
Electrode surface area : 0.001 cm²
Characteristic mass : 0.001 g
Equivalent Weight : 0.000 g/eq.
Density : 0.000 g/cm3
Cycle Definition : Charge/Discharge alternance
Mode                Single sine
E (V)               0.0000
vs.                 Eoc
tE (h:m:s)          0:00:0.0000
record              0
dI                  0.000
unit dI             mA
dt (s)              0.000
fi                  1.000
unit fi             MHz
ff                  10.000
unit ff             mHz
Nd                  6
Points              per decade
spacing             Logarithmic
Va (mV)             10.0
pw                  0.10
Na                  2
corr                1
E range min (V)     -5.000
E range max (V)     5.000
I Range             Auto
Bandwidth           5
nc cycles           0
goto Ns'            0
nr cycles           0
inc. cycle          0

freq/Hz	Re(Z)/Ohm	-Im(Z)/Ohm	|Z|/Ohm	Phase(Z)/deg	time/s	<Ewe>/V	<I>/mA	Cs/µF	Cp/µF	cycle number	I Range	|Ewe|/V	|I|/A	Re(Y)/Ohm-1	Im(Y)/Ohm-1	|Y|/Ohm-1	Phase(Y)/deg
1.00002e+06	266.013	87.6118	280.069	-18.2294	2.48809	0.000146079	0.000359251	0.00181656	0.000177764	1	11	0.00103822	3.70703e-06	0.00339135	0.00111694	0.00357054	18.2294
675752	77.2069	20.3253	79.8375	-14.7489	2.89708	8.9952e-05	0.000873219	0.0115877	0.000751027	1	11	0.00435478	5.45455e-05	0.0121127	0.00318877	0.0125254	14.7489
456640	62.6127	20.1427	65.7729	-17.8331	3.30609	0.000276402	0.000723494	0.0173033	0.00162282	1	11	0.00991952	0.000150815	0.0144733	0.00465611	0.0152038	17.8331
308574	61.3214	22.903	65.4589	-20.4802	3.84708	0.000242185	0.000881622	0.02252	0.00275687	1	11	0.010157	0.000155165	0.0143112	0.00534509	0.0152768	20.4802
208525	64.2241	27.0861	69.7022	-22.8673	4.2561	0.000272468	0.000939123	0.0281783	0.00425515	1	11	0.01097	0.000157384	0.0132192	0.00557512	0.0143468	22.8673
140908	69.327	32.0918	76.3945	-24.8396	4.66508	0.000304596	0.000936508	0.0351957	0.00621089	1	11	0.0109166	0.000142898	0.011879	0.00549882	0.0130899	24.8396
95214.8	76.1198	38.0293	85.0909	-26.5466	5.07409	0.000298089	0.000678311	0.0439539	0.00877946	1	11	0.010795	0.000126864	0.0105131	0.00525233	0.0117521	26.5466
64345.7	84.454	44.9593	95.6756	-28.0287	5.48309	0.000317425	0.000880127	0.055015	0.0121484	1	11	0.0106436	0.000111246	0.0092261	0.00491153	0.010452	28.0287
43476.5	94.2784	52.9109	108.111	-29.302	5.89208	0.000321155	0.000775952	0.0691863	0.0165719	1	11	0.0105125	9.72378e-05	0.00806627	0.00452695	0.00924976	29.302
29384.8	105.711	62.7969	122.957	-30.712	6.30108	0.000322758	0.000816464	0.0862502	0.0224974	1	11	0.010327	8.39893e-05	0.00699226	0.00415369	0.00813295	30.712
19853.5	118.891	74.6859	140.403	-32.1366	6.7101	0.000317332	0.000841853	0.107336	0.0303716	1	11	0.0101711	7.24421e-05	0.00603108	0.00378866	0.00712235	32.1366
13418	134.045	89.6886	161.282	-33.7863	6.98709	0.000316213	0.000801714	0.13225	0.0408975	1	11	0.0105674	6.55211e-05	0.00515318	0.00344797	0.0062003	33.7863
9082.03	151.141	108.835	186.249	-35.7573	7.28334	0.000327644	0.000588884	0.161016	0.0549817	1	11	0.010619	5.7015e-05	0.00435707	0.00313748	0.00536916	35.7573
6140.96	170.056	133.616	216.269	-38.1572	7.68664	0.00032701	0.000437849	0.193966	0.0740377	1	11	0.0105571	4.88146e-05	0.00363583	0.00285673	0.00462387	38.1572
4141.32	192.814	166.332	254.644	-40.783	8.15269	0.000370979	0.000637797	0.231049	0.0985804	1	11	0.0104937	4.12094e-05	0.00297352	0.00256513	0.00392705	40.783
2797.31	219.38	211.054	304.42	-43.8918	8.61892	0.000373105	0.000565547	0.269579	0.129577	1	11	0.0104329	3.42715e-05	0.00236729	0.00227744	0.00328494	43.8918
1890.6	251.077	271.365	369.7	-47.2238	9.55767	0.000338739	0.000109058	0.310217	0.167137	1	12	0.0100994	2.73179e-05	0.00183699	0.00198542	0.00270489	47.2238
1287.12	286.579	353.603	455.151	-50.9769	10.0242	0.000340547	-3.77496e-07	0.349692	0.21106	1	12	0.00983347	2.16048e-05	0.00138335	0.00170689	0.00219707	50.9769
863.066	333.134	466.934	573.59	-54.494	10.4912	0.000334338	-1.97336e-05	0.39493	0.261715	1	12	0.00967206	1.68623e-05	0.00101255	0.00141923	0.0017434	54.494
583.692	390.619	627.04	738.758	-58.0788	10.9582	0.000335289	4.24405e-05	0.434851	0.313276	1	12	0.0095818	1.29702e-05	0.000715731	0.00114892	0.00135362	58.0788
394.117	480.477	853.779	979.692	-60.6307	11.4252	0.000330515	7.98085e-05	0.472987	0.359221	1	12	0.00952866	9.72619e-06	0.000500603	0.000889542	0.00102073	60.6307
266.449	567.984	1146.76	1279.71	-63.651	11.8887	0.000331951	4.77973e-05	0.520875	0.418267	1	12	0.00949707	7.42126e-06	0.000346827	0.000700242	0.000781427	63.651
180.058	727.921	1589.48	1748.23	-65.3941	12.3537	0.000334823	5.19037e-05	0.5561	0.45969	1	12	0.00948218	5.42386e-06	0.000238169	0.000520064	0.000572006	65.3941
121.595	953.255	2179.94	2379.25	-66.3809	13.0631	0.000342058	-1.59357e-05	0.600426	0.504043	1	13	0.00955547	4.01617e-06	0.000168395	0.000385092	0.000420301	66.3809
82.2368	1296.17	2966.73	3237.52	-66.3994	13.5183	0.000342244	-1.38638e-05	0.652343	0.547781	1	13	0.00950302	2.93528e-06	0.000123662	0.000283044	0.000308878	66.3994
55.5152	1846.91	3997.43	4403.47	-65.2019	13.9799	0.00034519	-1.43174e-05	0.717179	0.591016	1	13	0.00948145	2.15318e-06	9.52483e-05	0.000206154	0.000227094	65.2019
37.5601	2673.45	5363.09	5992.5	-63.5042	14.4718	0.000343717	-1.07204e-05	0.790094	0.632838	1	13	0.00947409	1.58099e-06	7.44485e-05	0.000149348	0.000166875	63.5042
25.3653	4116.3	6945.45	8073.61	-59.3464	14.9309	0.000334189	-8.3498e-06	0.903401	0.668568	1	13	0.00946195	1.17196e-06	6.31497e-05	0.000106553	0.00012386	59.3464
17.1327	6195.46	8899.15	10843.4	-55.1549	15.3448	0.000335289	-2.38634e-05	1.04387	0.703097	1	13	0.00946906	8.73258e-07	5.2692e-05	7.56868e-05	9.22223e-05	55.1549
11.5912	8988.11	10477.1	13804.2	-49.3743	15.9803	0.000332716	-7.12964e-06	1.31054	0.754935	1	14	0.00948299	6.86966e-07	4.7168e-05	5.49818e-05	7.24418e-05	49.3743
7.82815	12638.4	11477.8	17072.4	-42.2448	16.5613	0.000337928	-9.32452e-06	1.77134	0.800624	1	14	0.00946811	5.54585e-07	4.33611e-05	3.93793e-05	5.8574e-05	42.2448
5.29302	16572.8	11503.3	20173.9	-34.7649	17.3977	0.000344737	-8.05283e-06	2.61392	0.849889	1	14	0.00947013	4.69425e-07	4.07209e-05	2.82648e-05	4.95691e-05	34.7649
3.57551	20141.3	10621.8	22770.5	-27.8056	18.6134	0.00035331	-7.43062e-06	4.19065	0.911874	1	14	0.00946767	4.15786e-07	3.88456e-05	2.04858e-05	4.39164e-05	27.8056
2.41723	23036.8	9240.86	24821.1	-21.8575	20.3906	0.000345055	-8.00097e-06	7.12507	0.98758	1	14	0.00947039	3.81546e-07	3.73921e-05	1.49993e-05	4.02883e-05	21.8575
1.63271	25193.7	7753.2	26359.7	-17.1054	23.0015	0.000342831	-7.4905e-06	12.5728	1.08771	1	14	0.00946905	3.59224e-07	3.62586e-05	1.11583e-05	3.79367e-05	17.1054
1.10206	26732.3	6409.42	27489.9	-13.4829	26.8505	0.000345105	-7.51311e-06	22.5318	1.22486	1	14	0.00946876	3.44445e-07	3.53744e-05	8.48149e-06	3.6377e-05	13.4829
0.745609	27915.8	5318.32	28417.9	-10.7863	32.5222	0.000345588	-7.77303e-06	40.136	1.40572	1	14	0.00946756	3.33155e-07	3.45674e-05	6.58552e-06	3.51891e-05	10.7863
0.503902	28796.5	4557.76	29155	-8.99388	40.898	0.000343837	-7.10168e-06	69.2982	1.69356	1	14	0.00946988	3.24812e-07	3.38778e-05	5.362e-06	3.42995e-05	8.99388
0.340103	29562.6	4023.79	29835.1	-7.75095	53.2915	0.000344404	-6.33905e-06	116.299	2.11538	1	14	0.00947008	3.17414e-07	3.32113e-05	4.52042e-06	3.35175e-05	7.75095
0.230213	30148.2	3753.1	30380.9	-7.09616	71.5848	0.000343921	-5.24164e-06	184.205	2.81112	1	14	0.00947101	3.11742e-07	3.26633e-05	4.0662e-06	3.29154e-05	7.09616
0.155473	30818.8	3694.67	31039.5	-6.83621	98.656	0.000342388	-6.00376e-06	277.07	3.92567	1	14	0.0094691	3.05066e-07	3.1988e-05	3.83484e-06	3.2217e-05	6.83621
0.105049	31433.5	3970.9	31683.3	-7.19987	138.705	0.000340919	-6.54195e-06	381.539	5.99317	1	14	0.00946891	2.98861e-07	3.13135e-05	3.95574e-06	3.15624e-05	7.19987
0.0710227	32007	4400.31	32308.1	-7.82792	197.926	0.00034042	-6.60323e-06	509.26	9.44678	1	14	0.00946944	2.93098e-07	3.06636e-05	4.21561e-06	3.0952e-05	7.82792
0.0479883	32868.4	5265.54	33287.5	-9.10149	285.556	0.000343581	-8.32524e-06	629.856	15.7603	1	14	0.00946862	2.8445e-07	2.96631e-05	4.75205e-06	3.00413e-05	9.10149
0.0324439	33830.9	6483.18	34446.5	-10.8483	415.156	0.000345791	-1.00895e-05	756.656	26.8031	1	14	0.00946989	2.74916e-07	2.85117e-05	5.46384e-06	2.90305e-05	10.8483
0.0219206	35619.3	7924.55	36490.1	-12.5428	606.957	0.000342509	-5.75286e-06	916.206	43.2107	1	14	0.00946869	2.59486e-07	2.67506e-05	5.95146e-06	2.74047e-05	12.5428
0.0148076	37615.8	9463.64	38788	-14.1218	890.874	0.000341518	-3.89452e-06	1135.73	67.608	1	14	0.00946833	2.44105e-07	2.5002e-05	6.29018e-06	2.57812e-05	14.1218
0.0100006	40350.6	10885.1	41793	-15.0969	1311.25	0.000343084	-1.32604e-05	1462.05	99.1784	1	14	0.00947053	2.26606e-07	2.31017e-05	6.23196e-06	2.39275e-05	15.0969