File: Python Codes/Alyssa_Old_Files/Functions.py/EIS Results/EIS_2023_07_08_Temp_In_Out_GB/0708_01_EIS_0.5MTFSI_Blocking_OutsideGB_Day_2_60C_t2_C02.mpt
EC-Lab ASCII FILE
Nb header lines : 62

Potentio Electrochemical Impedance Spectroscopy

Run on channel : 2 (SN 35514)
User :
CE vs. WE compliance from -10 V to 10 V
Electrode connection : standard
Ewe ctrl range : min = -5.00 V, max = 5.00 V
Safety Limits :
	Do not start on E overload
Acquisition started on : 07/09/2023 16:26:43
Technique started on : 07/09/2023 16:26:44
Saved on :
	File : 0708_01_EIS_0.5MTFSI_Blocking_OutsideGB_Day_2_60C_t2_C02.mpr
	Directory : C:\Users\CESL\Documents\EC-Lab\Data\PhD\Leifer\Results\Zn Ion GPE\2023\0708\
	Host : 10.110.196.171
Device : VSP (SN 1724172417241724)
Address : USB
EC-Lab for windows v11.16 (software)
Internet server v11.16 (firmware)
Command interpretor v11.16 (firmware)
Electrode material : Au/Pd
Initial state :
Electrolyte : NaCl (0.2M)
Comments : Fe(CN)63-/Fe(CN)64- 5.10-3 M
Reference electrode : SCE Saturated Calomel Electrode (0.241 V)
Electrode surface area : 0.001 cm²
Characteristic mass : 0.001 g
Equivalent Weight : 0.000 g/eq.
Density : 0.000 g/cm3
Cycle Definition : Charge/Discharge alternance
Mode                Single sine
E (V)               0.0000
vs.                 Eoc
tE (h:m:s)          0:00:0.0000
record              0
dI                  0.000
unit dI             mA
dt (s)              0.000
fi                  1.000
unit fi             MHz
ff                  10.000
unit ff             mHz
Nd                  6
Points              per decade
spacing             Logarithmic
Va (mV)             10.0
pw                  0.10
Na                  2
corr                1
E range min (V)     -5.000
E range max (V)     5.000
I Range             Auto
Bandwidth           5
nc cycles           0
goto Ns'            0
nr cycles           0
inc. cycle          0

freq/Hz	Re(Z)/Ohm	-Im(Z)/Ohm	|Z|/Ohm	Phase(Z)/deg	time/s	<Ewe>/V	<I>/mA	Cs/µF	Cp/µF	cycle number	I Range	|Ewe|/V	|I|/A	Re(Y)/Ohm-1	Im(Y)/Ohm-1	|Y|/Ohm-1	Phase(Y)/deg
1.00002e+06	-0.0703694	3.74168	3.74234	-91.0774	1.9741	-0.0222774	-0.00380405	0.0425349	0.0425199	1	9	0.000107715	2.87828e-05	-0.00502456	0.267165	0.267213	91.0774
675752	17.7614	-9.59689	20.1883	28.3834	2.67709	-0.0230557	-0.00885789	-0.0245416	-0.00554582	1	10	0.00059544	2.94944e-05	0.0435791	-0.0235469	0.0495337	-28.3834
456640	6.88	-2.60501	7.35666	20.7384	3.08609	-0.0230685	-0.00804683	-0.133794	-0.0167762	1	10	0.00225104	0.000305987	0.127124	-0.0481335	0.135931	-20.7384
308574	5.4896	-1.24096	5.62811	12.738	3.49509	-0.0232983	-0.0072283	-0.415626	-0.0202066	1	10	0.00610841	0.00108534	0.173306	-0.0391771	0.177679	-12.738
208525	5.0081	-0.585913	5.04226	6.67287	3.90408	-0.0233745	-0.00489579	-1.30265	-0.0175891	1	10	0.0104264	0.00206779	0.19698	-0.0230453	0.198324	-6.67287
140908	4.82512	-0.149419	4.82743	1.77371	4.44509	-0.0233264	-0.00427679	-7.55925	-0.00724199	1	10	0.0101585	0.00210433	0.20705	-0.00641171	0.20715	-1.77371
95214.8	4.77728	0.22738	4.78269	-2.725	4.98608	-0.0233047	-0.00302199	7.35127	0.0166159	1	10	0.0101268	0.00211737	0.208851	0.00994049	0.209087	2.725
64345.7	4.79096	0.606129	4.82915	-7.21048	5.3951	-0.0233081	-0.00252416	4.08071	0.0642873	1	10	0.010766	0.00222938	0.205438	0.0259911	0.207076	7.21048
43476.5	4.84967	1.02518	4.95685	-11.9362	5.80409	-0.0233022	-0.00419848	3.57078	0.152741	1	10	0.0106919	0.002157	0.197379	0.0417244	0.201741	11.9362
29384.8	4.9346	1.56152	5.17577	-17.5596	6.2131	-0.0232862	-0.00277588	3.46858	0.315715	1	10	0.0106461	0.00205692	0.184205	0.0582904	0.193208	17.5596
19853.5	5.04247	2.26594	5.5282	-24.1978	6.6221	-0.0232953	-0.00308911	3.53781	0.59438	1	10	0.0105087	0.00190093	0.164997	0.0741449	0.180891	24.1978
13418	5.16768	3.25637	6.1081	-32.2167	7.03109	-0.0232872	-0.00252418	3.6425	1.03527	1	10	0.0102167	0.00167265	0.138511	0.0872813	0.163717	32.2167
9082.03	5.31615	4.6723	7.07756	-41.3118	7.32733	-0.0232754	0.00115072	3.75065	1.63456	1	10	0.0105712	0.00149362	0.106128	0.0932747	0.141292	41.3118
6140.96	5.52849	6.73167	8.71089	-50.6049	7.73063	-0.0232869	0.000272537	3.85	2.29923	1	10	0.0102311	0.00117451	0.0728587	0.0887152	0.114799	50.6049
4141.32	5.82962	9.73275	11.3451	-59.0797	8.19671	-0.0232491	0.00557514	3.94862	2.90604	1	10	0.00981233	0.000864897	0.0452923	0.0756171	0.0881439	59.0797
2797.31	6.24807	14.0593	15.3851	-66.0392	8.66293	-0.0232458	0.00664535	4.04684	3.37941	1	10	0.0095359	0.000619813	0.0263964	0.0593966	0.0649979	66.0392
1890.6	6.86083	20.3025	21.4304	-71.3283	9.1277	-0.0232564	0.00598345	4.14639	3.72142	1	10	0.00937894	0.000437647	0.0149388	0.0442068	0.0466627	71.3283
1287.12	7.7859	29.0611	30.086	-75.0018	9.59421	-0.0232452	0.0062277	4.25491	3.96995	1	10	0.00929876	0.000309073	0.00860162	0.0321058	0.0332381	75.0018
863.066	9.18662	42.3289	43.3143	-77.755	10.3132	-0.0232643	-0.000184222	4.35651	4.16054	1	11	0.0095356	0.000220149	0.00489658	0.0225618	0.0230871	77.755
583.692	11.2034	61.1266	62.1449	-79.614	10.7802	-0.0232637	-0.000227491	4.46073	4.31575	1	11	0.00936941	0.000150767	0.00290094	0.0158278	0.0160914	79.614
394.117	14.3344	88.3466	89.5019	-80.7839	11.2472	-0.0232614	-0.000200077	4.57094	4.45369	1	11	0.00929069	0.000103804	0.00178944	0.0110287	0.0111729	80.7839
266.449	19.1727	127.352	128.787	-81.4385	11.7097	-0.0232546	-0.000231037	4.69028	4.58633	1	11	0.00925673	7.18761e-05	0.00115595	0.00767822	0.00776474	81.4385
180.058	26.41	183.423	185.315	-81.8066	12.1747	-0.0232689	-0.000130143	4.81898	4.7211	1	11	0.00923857	4.98534e-05	0.000769039	0.00534115	0.00539623	81.8066
121.595	39.1065	264.373	267.25	-81.5857	12.8841	-0.0232613	-7.04711e-05	4.95092	4.84491	1	12	0.00928955	3.47598e-05	0.000547537	0.00370154	0.00374181	81.5857
82.2368	59.0309	378.649	383.223	-81.139	13.3393	-0.0232635	-9.9932e-05	5.11113	4.98985	1	12	0.00925394	2.41476e-05	0.000401953	0.0025783	0.00260945	81.139
55.5152	92.6091	543.599	551.431	-80.3318	13.8009	-0.0232641	-5.74009e-05	5.27387	5.12512	1	12	0.00923482	1.6747e-05	0.000304558	0.00178771	0.00181346	80.3318
37.5601	142.592	772.449	785.5	-79.5411	14.2928	-0.0232549	-6.76283e-05	5.4856	5.30483	1	12	0.0092296	1.175e-05	0.000231101	0.00125192	0.00127308	79.5411
25.3653	235.358	1090.17	1115.29	-77.8174	14.7519	-0.0232694	-0.000128796	5.75554	5.49922	1	12	0.00922479	8.27121e-06	0.000189214	0.000876437	0.000896629	77.8174
17.1327	368.426	1525.48	1569.34	-76.4222	15.3939	-0.0232691	-2.15633e-05	6.08961	5.75398	1	13	0.00923962	5.8876e-06	0.000149596	0.000619404	0.000637212	76.4222
11.5912	583.518	2112.77	2191.87	-74.5606	15.8033	-0.0232734	-5.20875e-06	6.49888	6.03829	1	13	0.00923027	4.21115e-06	0.000121458	0.000439768	0.000456232	74.5606
7.82815	909.257	2881.57	3021.62	-72.4873	16.3853	-0.023265	-1.04418e-05	7.05556	6.41667	1	13	0.00922602	3.05333e-06	9.95878e-05	0.000315609	0.000330948	72.4873
5.29302	1384.59	3893.52	4132.38	-70.424	17.2217	-0.0232615	-8.96596e-06	7.72279	6.8558	1	13	0.00922511	2.2324e-06	8.1081e-05	0.000228004	0.000241991	70.424
3.57551	2071.67	5205.11	5602.23	-68.2971	18.4364	-0.023257	-2.60652e-06	8.55169	7.38227	1	13	0.00922683	1.64699e-06	6.60083e-05	0.000165847	0.0001785	68.2971
2.41723	3042.57	6846.57	7492.18	-66.04	21.0886	-0.023254	1.89686e-06	9.61675	8.03079	1	14	0.00922762	1.23163e-06	5.42031e-05	0.000121971	0.000133473	66.04
1.63271	4354.12	8929.73	9934.71	-64.0062	23.6994	-0.0232548	9.48826e-08	10.9163	8.81942	1	14	0.00922446	9.28509e-07	4.41154e-05	9.04749e-05	0.000100657	64.0062
1.10206	6174.96	11565.1	13110.3	-61.9008	27.5484	-0.0232554	-2.39449e-07	12.4873	9.71708	1	14	0.00922366	7.03541e-07	3.59259e-05	6.72854e-05	7.62757e-05	61.9008
0.745609	8624.55	14742.9	17080.3	-59.6725	33.2201	-0.0232546	1.8756e-07	14.4786	10.787	1	14	0.00922292	5.39974e-07	2.95628e-05	5.05351e-05	5.8547e-05	59.6725
0.503902	11974.5	18618.6	22136.9	-57.2531	41.596	-0.0232589	1.7416e-06	16.9639	12.0002	1	14	0.00922439	4.16697e-07	2.44356e-05	3.79939e-05	4.51734e-05	57.2531
0.340103	16152.8	22989.2	28096.6	-54.9071	53.9894	-0.02326	8.86538e-07	20.3557	13.6279	1	14	0.00922278	3.28253e-07	2.04617e-05	2.91217e-05	3.55916e-05	54.9071
0.230213	21432.5	28064	35312	-52.631	72.2827	-0.0232821	5.62444e-07	24.6344	15.5595	1	14	0.00921787	2.61041e-07	1.71881e-05	2.25063e-05	2.8319e-05	52.631
0.155473	27767.6	33902	43822.2	-50.6806	99.354	-0.0232819	3.60535e-07	30.1954	18.0719	1	14	0.00922239	2.1045e-07	1.44594e-05	1.76537e-05	2.28195e-05	50.6806
0.105049	35351	40714.8	53920.2	-49.0335	139.403	-0.0232855	3.08725e-07	37.2114	21.2167	1	14	0.00922447	1.71076e-07	1.2159e-05	1.40039e-05	1.85459e-05	49.0335
0.0710227	43893.6	48971.3	65763.4	-48.1297	198.623	-0.0232898	7.36576e-07	45.7595	25.3744	1	14	0.00922335	1.4025e-07	1.01492e-05	1.13233e-05	1.5206e-05	48.1297
0.0479883	53883	59003.2	79904.6	-47.597	286.254	-0.0232877	4.8979e-07	56.2094	30.649	1	14	0.00922242	1.15418e-07	8.43933e-06	9.24126e-06	1.25149e-05	47.597
0.0324439	65262.3	72167.2	97299.9	-47.8763	415.855	-0.0232764	-5.38115e-08	67.9747	37.394	1	14	0.00922141	9.47731e-08	6.89347e-06	7.62281e-06	1.02775e-05	47.8763
0.0219206	79185.2	89131.2	119225	-48.3817	607.655	-0.0232711	-7.74097e-07	81.4588	45.5261	1	14	0.00922359	7.73627e-08	5.57067e-06	6.27037e-06	8.38748e-06	48.3817
0.0148076	96167.4	112581	148063	-49.4958	891.573	-0.0232694	-6.00714e-07	95.4707	55.1959	1	14	0.0092243	6.22999e-08	4.38667e-06	5.13537e-06	6.75388e-06	49.4958
0.0100006	116433	140974	182840	-50.446	1311.95	-0.0232703	-1.50591e-06	112.89	67.1105	1	14	0.00922192	5.04372e-08	3.48286e-06	4.21694e-06	5.46927e-06	50.446