File: Python Codes/Alyssa_Old_Files/Functions.py/EIS Results/EIS_2023_07_08_Temp_In_Out_GB/0708_01_EIS_0.5MTFSI_SymCell_OutsideGB_unsanded_40C_C04_C05.mpt
EC-Lab ASCII FILE
Nb header lines : 62

Potentio Electrochemical Impedance Spectroscopy

Run on channel : 5 (SN 35518)
User :
CE vs. WE compliance from -10 V to 10 V
Electrode connection : standard
Ewe ctrl range : min = -5.00 V, max = 5.00 V
Safety Limits :
	Do not start on E overload
Acquisition started on : 07/09/2023 15:26:24
Technique started on : 07/09/2023 15:26:25
Saved on :
	File : 0708_01_EIS_0.5MTFSI_SymCell_OutsideGB_unsanded_40C_C04_C05.mpr
	Directory : C:\Users\CESL\Documents\EC-Lab\Data\PhD\Leifer\Results\Zn Ion GPE\2023\0708\
	Host : 10.110.196.171
Device : VSP (SN 1724172417241724)
Address : USB
EC-Lab for windows v11.16 (software)
Internet server v11.16 (firmware)
Command interpretor v11.16 (firmware)
Electrode material : Au/Pd
Initial state :
Electrolyte : NaCl (0.2M)
Comments : Fe(CN)63-/Fe(CN)64- 5.10-3 M
Reference electrode : SCE Saturated Calomel Electrode (0.241 V)
Electrode surface area : 0.001 cm²
Characteristic mass : 0.001 g
Equivalent Weight : 0.000 g/eq.
Density : 0.000 g/cm3
Cycle Definition : Charge/Discharge alternance
Mode                Single sine
E (V)               0.0000
vs.                 Eoc
tE (h:m:s)          0:00:0.0000
record              0
dI                  0.000
unit dI             mA
dt (s)              0.000
fi                  1.000
unit fi             MHz
ff                  10.000
unit ff             mHz
Nd                  6
Points              per decade
spacing             Logarithmic
Va (mV)             10.0
pw                  0.10
Na                  2
corr                1
E range min (V)     -5.000
E range max (V)     5.000
I Range             Auto
Bandwidth           5
nc cycles           0
goto Ns'            0
nr cycles           0
inc. cycle          0

freq/Hz	Re(Z)/Ohm	-Im(Z)/Ohm	|Z|/Ohm	Phase(Z)/deg	time/s	<Ewe>/V	<I>/mA	Cs/µF	Cp/µF	cycle number	I Range	|Ewe|/V	|I|/A	Re(Y)/Ohm-1	Im(Y)/Ohm-1	|Y|/Ohm-1	Phase(Y)/deg
1.00002e+06	-1.61033	4.72896	4.99562	-108.805	1.9741	0.00419546	0.0654151	0.0336547	0.0301577	1	9	0.000219946	4.40277e-05	-0.064526	0.18949	0.200175	108.805
675752	621.406	-15.0435	621.589	1.38679	3.26508	0.00390416	-2.23986e-05	-0.0156561	-9.17012e-06	1	12	0.000330215	5.31244e-07	0.00160831	-3.89352e-05	0.00160878	-1.38679
456640	32.836	7.5577	33.6945	-12.9618	4.1301	0.00410079	0.0127408	0.0461164	0.00232016	1	10	0.00796419	0.000236365	0.0289222	0.00665689	0.0296784	12.9618
308574	23.6492	8.64144	25.1785	-20.0724	4.67108	0.00398773	0.0120747	0.0596863	0.00703052	1	10	0.0101459	0.00040296	0.037304	0.013631	0.0397164	20.0724
208525	21.721	11.1244	24.404	-27.1192	5.21208	0.00402106	0.0121344	0.0686095	0.0142566	1	10	0.0102343	0.000419369	0.0364719	0.0186791	0.0409769	27.1192
140908	21.8066	15.0388	26.4895	-34.5918	5.7531	0.00403055	0.0118471	0.0751054	0.0242075	1	10	0.0102093	0.000385409	0.0310771	0.0214321	0.0377508	34.5918
95214.8	22.8119	20.5389	30.6958	-41.9985	6.16209	0.00401718	0.0115635	0.081384	0.0364364	1	10	0.0106473	0.000346864	0.0242106	0.0217981	0.0325778	41.9985
64345.7	24.7999	28.2699	37.6062	-48.741	6.5711	0.00403096	0.0121083	0.0874936	0.0494432	1	10	0.0103033	0.000273979	0.0175361	0.0199897	0.0265914	48.741
43476.5	27.5645	39.0124	47.7679	-54.7566	6.98009	0.00401142	0.0102781	0.0938344	0.0625887	1	10	0.0101544	0.000212577	0.0120803	0.0170974	0.0209346	54.7566
29384.8	31.9895	53.9851	62.7513	-59.3506	7.55208	0.00393702	0.000429672	0.100328	0.0742552	1	11	0.0101691	0.000162055	0.00812386	0.0137097	0.0159359	59.3506
19853.5	37.9841	74.7927	83.8853	-63.0759	7.9611	0.00394213	0.000453166	0.107182	0.0852061	1	11	0.0101353	0.000120823	0.00539797	0.0106289	0.011921	63.0759
13418	46.5848	103.272	113.293	-65.7204	8.23808	0.00394247	0.000505749	0.114855	0.0954358	1	11	0.0094336	8.32674e-05	0.00362944	0.00804596	0.00882669	65.7204
9082.03	58.5709	142.179	153.77	-67.6107	8.67532	0.0039368	0.000589472	0.123254	0.105372	1	11	0.00988547	6.42872e-05	0.00247706	0.00601297	0.0065032	67.6107
6140.96	75.3531	194.848	208.911	-68.8571	9.07863	0.00399928	0.00115913	0.133011	0.115706	1	11	0.00949283	4.54397e-05	0.00172655	0.00446451	0.00478673	68.8571
4141.32	98.5786	266.81	284.438	-69.7221	9.5447	0.00403097	0.000871969	0.144039	0.126738	1	11	0.00928898	3.26573e-05	0.00121845	0.00329781	0.0035157	69.7221
2797.31	131.441	366.306	389.175	-70.2605	10.2629	0.00397962	-2.40776e-05	0.155323	0.137605	1	12	0.0102676	2.6383e-05	0.000867846	0.00241855	0.00256954	70.2605
1890.6	176.661	501.898	532.081	-70.6086	10.7277	0.00398543	-4.53378e-05	0.167728	0.149238	1	12	0.00965853	1.81524e-05	0.000624001	0.0017728	0.00187941	70.6086
1287.12	239.417	682.341	723.125	-70.6653	11.1942	0.00398314	-3.07357e-05	0.181218	0.161353	1	12	0.0093835	1.29763e-05	0.000457855	0.00130489	0.00138289	70.6653
863.066	318.949	940.269	992.892	-71.2625	11.6612	0.00398294	3.41258e-05	0.196121	0.175883	1	12	0.00923277	9.29887e-06	0.000323532	0.00095378	0.00100716	71.2625
583.692	433.796	1276.97	1348.64	-71.237	12.1282	0.00398055	1.83113e-05	0.213528	0.191436	1	12	0.00917107	6.80023e-06	0.000238502	0.000702082	0.000741487	71.237
394.117	580.09	1765.32	1858.19	-71.8093	12.5952	0.00398599	7.47248e-05	0.228755	0.206462	1	12	0.00912833	4.91249e-06	0.000168003	0.000511263	0.000538159	71.8093
266.449	871.017	2367.83	2522.95	-69.8037	13.0587	0.00398342	-3.54169e-05	0.252264	0.222197	1	12	0.00911405	3.61245e-06	0.000136838	0.000371991	0.000396361	69.8037
180.058	1123.18	3305.75	3491.35	-71.2341	13.7767	0.00399272	2.57847e-06	0.267386	0.239713	1	13	0.0091802	2.62941e-06	9.21428e-05	0.000271196	0.000286422	71.2341
121.595	1554.48	4537.45	4796.34	-71.0891	14.2371	0.00399692	7.62705e-06	0.288464	0.258164	1	13	0.00913805	1.90521e-06	6.75718e-05	0.000197239	0.000208493	71.0891
82.2368	2157.14	6220.98	6584.37	-70.8759	14.6923	0.00399306	8.06718e-06	0.311096	0.277706	1	13	0.00912112	1.38527e-06	4.97566e-05	0.000143493	0.000151875	70.8759
55.5152	3161.11	8494.88	9063.98	-69.5888	15.1539	0.00399172	1.07304e-05	0.337482	0.296434	1	13	0.0091136	1.00548e-06	3.84771e-05	0.0001034	0.000110327	69.5888
37.5601	4620.75	11531.8	12423.1	-68.1642	15.6448	0.00399547	-1.43975e-06	0.367448	0.316614	1	13	0.00910867	7.33203e-07	2.99399e-05	7.47199e-05	8.04951e-05	68.1642
25.3653	7215.93	15422.9	17027.5	-64.9265	16.3539	0.00399807	1.21541e-06	0.406832	0.333769	1	14	0.00912122	5.35677e-07	2.48881e-05	5.31943e-05	5.87286e-05	64.9265
17.1327	11082.3	20039	22899.3	-61.0559	16.7678	0.00399362	1.39897e-06	0.463574	0.354998	1	14	0.00911409	3.98007e-07	2.11341e-05	3.82148e-05	4.36694e-05	61.0559
11.5912	17034.9	25121.9	30352.9	-55.8591	17.1773	0.00399289	3.30474e-06	0.546561	0.374405	1	14	0.0091055	2.99988e-07	1.84902e-05	2.72679e-05	3.29458e-05	55.8591
7.82815	25329.4	29675.1	39015.2	-49.5173	17.7593	0.00399417	7.3234e-07	0.685124	0.396355	1	14	0.00910164	2.33284e-07	1.66401e-05	1.9495e-05	2.5631e-05	49.5173
5.29302	35935.1	32497.9	48450.4	-42.1246	18.5957	0.0039937	1.03222e-06	0.925255	0.416272	1	14	0.00909993	1.87819e-07	1.53082e-05	1.3844e-05	2.06397e-05	42.1246
3.57551	47456.4	32376.4	57448.6	-34.3032	19.8103	0.00399805	2.97503e-06	1.37484	0.436668	1	14	0.00910693	1.58523e-07	1.43792e-05	9.81002e-06	1.74069e-05	34.3032
2.41723	57603.9	29321.3	64637.1	-26.9768	21.5875	0.00399649	4.28959e-06	2.24553	0.462084	1	14	0.00910252	1.40825e-07	1.37876e-05	7.0181e-06	1.5471e-05	26.9768
1.63271	66012.1	24556.2	70431.6	-20.405	24.1984	0.00399531	4.04433e-06	3.96963	0.482547	1	14	0.00910338	1.29251e-07	1.33073e-05	4.95025e-06	1.41982e-05	20.405
1.10206	71654.2	19567.9	74278.1	-15.2744	28.0475	0.00399589	5.08707e-06	7.38024	0.512199	1	14	0.00910397	1.22566e-07	1.29874e-05	3.54669e-06	1.34629e-05	15.2744
0.745609	75525.4	14692.6	76941.3	-11.0088	33.7182	0.00399649	6.42279e-06	14.5281	0.529773	1	14	0.00910398	1.18324e-07	1.27578e-05	2.48188e-06	1.29969e-05	11.0088
0.503902	77960.3	10385.3	78649	-7.58782	42.0941	0.00399808	7.17544e-06	30.4128	0.53028	1	14	0.00910457	1.15762e-07	1.26034e-05	1.67892e-06	1.27147e-05	7.58782
0.340103	79301.8	7029.35	79612.7	-5.06549	54.4875	0.00399973	9.44582e-06	66.5725	0.518992	1	14	0.00910295	1.1434e-07	1.25118e-05	1.10905e-06	1.25608e-05	5.06549
0.230213	80517.8	4087.23	80621.4	-2.90595	72.7808	0.00399982	1.22608e-05	169.146	0.43473	1	14	0.0091036	1.12918e-07	1.23877e-05	6.28823e-07	1.24037e-05	2.90595
0.155473	80988.8	1789.04	81008.6	-1.26546	99.8522	0.00399828	1.61962e-05	572.197	0.279077	1	14	0.00910319	1.12373e-07	1.23414e-05	2.7262e-07	1.23444e-05	1.26546
0.105049	80924.6	-239.082	80924.9	0.169273	139.902	0.00400073	2.48571e-05	-6336.97	-0.0553108	1	14	0.00910505	1.12512e-07	1.23571e-05	-3.65075e-08	1.23571e-05	-0.169273
0.0710227	79848.8	-3283.73	79916.2	2.35493	199.123	0.0040029	3.40911e-05	-682.426	-1.15218	1	14	0.00910516	1.13934e-07	1.25025e-05	-5.14159e-07	1.25131e-05	-2.35493
0.0479883	79078.6	-6826.49	79372.7	4.93385	286.754	0.00400471	4.72057e-05	-485.833	-3.59368	1	14	0.00910571	1.14721e-07	1.25521e-05	-1.08357e-06	1.25988e-05	-4.93385
0.0324439	77247.6	-10266.4	77926.8	7.57036	416.354	0.00400865	6.61653e-05	-477.827	-8.29334	1	14	0.00910437	1.16832e-07	1.27207e-05	-1.69061e-06	1.28326e-05	-7.57036
0.0219206	73369.3	-11929.6	74332.9	9.23527	608.156	0.00401295	9.41573e-05	-608.615	-15.6759	1	14	0.00910468	1.22485e-07	1.32786e-05	-2.15906e-06	1.3453e-05	-9.23527
0.0148076	66876.3	-13425.6	68210.6	11.3514	892.075	0.00400843	0.000119417	-800.572	-31.0146	1	14	0.0091038	1.33466e-07	1.43737e-05	-2.88557e-06	1.46605e-05	-11.3514
0.0100006	66700.8	-13372.5	68028.1	11.3367	1312.45	0.00402394	0.000117462	-1190.09	-45.9864	1	14	0.00910345	1.33819e-07	1.4413e-05	-2.88959e-06	1.46998e-05	-11.3367