File: Python Codes/Alyssa_Old_Files/Functions.py/EIS Results/EIS_2023_07_08_Temp_In_Out_GB/0708_01_EIS_0.5MTFSI_SymCell_OutsideGB_unsanded_60C_C04_t2_C05.mpt
EC-Lab ASCII FILE
Nb header lines : 62

Potentio Electrochemical Impedance Spectroscopy

Run on channel : 5 (SN 35518)
User :
CE vs. WE compliance from -10 V to 10 V
Electrode connection : standard
Ewe ctrl range : min = -5.00 V, max = 5.00 V
Safety Limits :
	Do not start on E overload
Acquisition started on : 07/09/2023 16:27:14
Technique started on : 07/09/2023 16:27:15
Saved on :
	File : 0708_01_EIS_0.5MTFSI_SymCell_OutsideGB_unsanded_60C_C04_t2_C05.mpr
	Directory : C:\Users\CESL\Documents\EC-Lab\Data\PhD\Leifer\Results\Zn Ion GPE\2023\0708\
	Host : 10.110.196.171
Device : VSP (SN 1724172417241724)
Address : USB
EC-Lab for windows v11.16 (software)
Internet server v11.16 (firmware)
Command interpretor v11.16 (firmware)
Electrode material : Au/Pd
Initial state :
Electrolyte : NaCl (0.2M)
Comments : Fe(CN)63-/Fe(CN)64- 5.10-3 M
Reference electrode : SCE Saturated Calomel Electrode (0.241 V)
Electrode surface area : 0.001 cm²
Characteristic mass : 0.001 g
Equivalent Weight : 0.000 g/eq.
Density : 0.000 g/cm3
Cycle Definition : Charge/Discharge alternance
Mode                Single sine
E (V)               0.0000
vs.                 Eoc
tE (h:m:s)          0:00:0.0000
record              0
dI                  0.000
unit dI             mA
dt (s)              0.000
fi                  1.000
unit fi             MHz
ff                  10.000
unit ff             mHz
Nd                  6
Points              per decade
spacing             Logarithmic
Va (mV)             10.0
pw                  0.10
Na                  2
corr                1
E range min (V)     -5.000
E range max (V)     5.000
I Range             Auto
Bandwidth           5
nc cycles           0
goto Ns'            0
nr cycles           0
inc. cycle          0

freq/Hz	Re(Z)/Ohm	-Im(Z)/Ohm	|Z|/Ohm	Phase(Z)/deg	time/s	<Ewe>/V	<I>/mA	Cs/µF	Cp/µF	cycle number	I Range	|Ewe|/V	|I|/A	Re(Y)/Ohm-1	Im(Y)/Ohm-1	|Y|/Ohm-1	Phase(Y)/deg
1.00002e+06	-0.9667	4.15333	4.26434	-103.103	1.9741	0.00864835	0.0905644	0.0383191	0.0363499	1	9	0.000148036	3.47148e-05	-0.0531603	0.228398	0.234503	103.103
675752	344.351	12.36	344.573	-2.05566	2.9711	0.00823716	-0.000733327	0.0190553	2.45181e-05	1	11	0.000692477	2.00967e-06	0.00290027	0.000104101	0.00290214	2.05566
456640	21.0619	4.48835	21.5348	-12.0299	4.26208	0.008438	0.0124105	0.0776531	0.00337326	1	10	0.00526276	0.000244384	0.0454166	0.0096784	0.0464364	12.0299
308574	16.0051	5.17333	16.8204	-17.9125	4.67108	0.0082835	0.0112819	0.0996988	0.00943104	1	10	0.0106308	0.000632021	0.0565699	0.0182852	0.0594517	17.9125
208525	15.4602	6.25822	16.6788	-22.0379	5.2121	0.00831641	0.010558	0.121958	0.0171704	1	10	0.0101962	0.000611329	0.0555756	0.0224968	0.0599563	22.0379
140908	16.2834	7.62488	17.9802	-25.0918	5.75309	0.00834021	0.00940877	0.148133	0.0266395	1	10	0.010184	0.0005664	0.050368	0.0235853	0.0556166	25.0918
95214.8	17.8536	9.11427	20.0455	-27.0443	6.16209	0.00836318	0.0107203	0.183398	0.0379144	1	10	0.0108487	0.000541205	0.0444317	0.0226824	0.0498866	27.0443
64345.7	19.9132	10.7649	22.6367	-28.3952	6.57109	0.00835777	0.0105692	0.229769	0.0519619	1	10	0.0104833	0.000463113	0.0388612	0.021008	0.0441761	28.3952
43476.5	22.3004	12.527	25.578	-29.3245	6.98008	0.0083653	0.0105244	0.292227	0.0700935	1	10	0.0103047	0.000402872	0.0340863	0.0191475	0.0390961	29.3245
29384.8	24.8464	14.603	28.82	-30.4441	7.38909	0.00836366	0.0102912	0.370899	0.0952254	1	10	0.0101265	0.000351369	0.0299141	0.0175815	0.0346981	30.4441
19853.5	27.5501	17.2721	32.5167	-32.085	7.66609	0.00834601	0.00977629	0.464128	0.130953	1	10	0.0105727	0.000325147	0.0260562	0.0163355	0.0307534	32.085
13418	30.3808	20.7923	36.8146	-34.3873	7.94308	0.00835866	0.0105916	0.570467	0.181968	1	10	0.0107252	0.00029133	0.0224161	0.0153413	0.0271631	34.3873
9082.03	33.161	25.9565	42.1116	-38.0518	8.24034	0.00836959	0.00884348	0.675136	0.256495	1	10	0.0107336	0.000254884	0.0186992	0.0146367	0.0237464	38.0518
6140.96	36.3871	33.5381	49.4856	-42.6669	9.05466	0.00833946	0.000448321	0.772761	0.354948	1	11	0.0102357	0.000206842	0.014859	0.0136956	0.0202079	42.6669
4141.32	39.9113	44.5327	59.8002	-48.1325	9.52069	0.00836616	0.00107671	0.862983	0.478579	1	11	0.00988505	0.000165301	0.0111607	0.012453	0.0167223	48.1325
2797.31	44.2003	60.1411	74.6366	-53.6862	9.98694	0.00836467	0.00109014	0.946035	0.614252	1	11	0.00958067	0.000128364	0.00793453	0.0107961	0.0133983	53.6862
1890.6	49.4654	82.3472	96.0619	-59.0071	10.4507	0.0083636	0.0010782	1.02228	0.751218	1	11	0.0093717	9.75589e-05	0.00536042	0.00892373	0.01041	59.0071
1287.12	56.0938	113.146	126.287	-63.6294	10.9172	0.00836767	0.000942083	1.09286	0.877246	1	11	0.00924528	7.32083e-05	0.00351719	0.00709446	0.00791846	63.6294
863.066	65.2423	158.946	171.815	-67.6834	11.3842	0.00836567	0.00116454	1.16018	0.992895	1	11	0.00917186	5.33822e-05	0.00221007	0.00538428	0.00582021	67.6834
583.692	77.1621	223.349	236.303	-70.9411	11.8512	0.00836198	0.000955694	1.22082	1.09065	1	11	0.00913793	3.86705e-05	0.00138187	0.00399989	0.00423186	70.9411
394.117	93.5836	315.726	329.304	-73.4898	12.5702	0.00835935	3.44806e-05	1.27904	1.17574	1	12	0.00928442	2.81941e-05	0.00086299	0.0029115	0.00303671	73.4898
266.449	114.241	451.053	465.295	-75.7872	13.0337	0.0083584	-7.63512e-05	1.32427	1.24444	1	12	0.00919139	1.97539e-05	0.000527673	0.00208339	0.00214917	75.7872
180.058	154.745	635.751	654.313	-76.32	13.4987	0.0083607	-1.81662e-05	1.39034	1.31258	1	12	0.00913758	1.39652e-05	0.000361447	0.00148496	0.00152832	76.32
121.595	213.456	912.558	937.19	-76.8347	13.9591	0.00836282	-2.77146e-05	1.43431	1.3599	1	12	0.00911798	9.72906e-06	0.000243026	0.00103897	0.00106702	76.8347
82.2368	313.843	1272.78	1310.9	-76.1482	14.4143	0.00836385	2.38314e-05	1.52055	1.4334	1	12	0.00910444	6.94518e-06	0.000182631	0.00074065	0.000762834	76.1482
55.5152	514.624	1803.39	1875.38	-74.0731	14.8759	0.00836394	6.78619e-05	1.58971	1.47	1	12	0.00910634	4.85573e-06	0.000146322	0.000512755	0.000533224	74.0731
37.5601	793.845	2562.28	2682.44	-72.786	15.6317	0.00837176	-1.13718e-05	1.65374	1.5089	1	13	0.00912022	3.39997e-06	0.000110325	0.000356096	0.000372795	72.786
25.3653	1349.36	3525.85	3775.24	-69.0578	16.0909	0.00836236	-9.60754e-06	1.77958	1.55223	1	13	0.00911469	2.41434e-06	9.46763e-05	0.000247386	0.000264884	69.0578
17.1327	2254.02	4675.73	5190.67	-64.2628	16.5038	0.00836293	-9.33899e-06	1.98676	1.61212	1	13	0.0091073	1.75455e-06	8.36586e-05	0.000173541	0.000192653	64.2628
11.5912	3771.93	5900.38	7003	-57.4105	16.9133	0.00836422	-1.9162e-05	2.32707	1.65197	1	13	0.00909939	1.29936e-06	7.69123e-05	0.000120313	0.000142796	57.4105
7.82815	5852.03	6767.96	8947.15	-49.1511	17.4953	0.00836208	-9.34461e-06	3.00402	1.71889	1	13	0.00909973	1.01705e-06	7.31033e-05	8.4545e-05	0.000111767	49.1511
5.29302	8239.01	7047.32	10841.9	-40.5424	18.7588	0.00836102	-1.53758e-05	4.26671	1.80274	1	14	0.00910493	8.39794e-07	7.00918e-05	5.99537e-05	9.22351e-05	40.5424
3.57551	10452.1	6787.15	12462.4	-32.998	19.9733	0.00836506	-1.40916e-05	6.55834	1.94521	1	14	0.0091039	7.30509e-07	6.72976e-05	4.37003e-05	8.02413e-05	32.998
2.41723	12311.1	6239.85	13802.2	-26.878	21.7505	0.00836675	-1.20622e-05	10.5518	2.15665	1	14	0.00910459	6.59649e-07	6.46254e-05	3.27551e-05	7.24523e-05	26.878
1.63271	13779.8	5635.23	14887.5	-22.2421	24.3613	0.00836372	-1.30247e-05	17.2982	2.47845	1	14	0.00910133	6.1134e-07	6.21724e-05	2.54254e-05	6.71704e-05	22.2421
1.10206	15108.6	5177.33	15971	-18.9153	28.2116	0.0083689	-1.05263e-05	27.8939	2.93126	1	14	0.00910381	5.7002e-07	5.92322e-05	2.02974e-05	6.26134e-05	18.9153
0.745609	16334.5	4740.27	17008.4	-16.1827	33.8834	0.00837018	-6.7342e-06	45.0304	3.49771	1	14	0.00910239	5.35169e-07	5.64648e-05	1.63861e-05	5.87944e-05	16.1827
0.503902	17540.8	4262.37	18051.2	-13.658	42.2593	0.00836978	-4.49151e-06	74.1008	4.13153	1	14	0.00910221	5.04243e-07	5.38314e-05	1.30809e-05	5.53979e-05	13.658
0.340103	18586.1	3641.38	18939.4	-11.085	54.6527	0.00836874	-1.68523e-06	128.512	4.75053	1	14	0.00910188	4.80579e-07	5.18148e-05	1.01515e-05	5.27999e-05	11.085
0.230213	19404.5	2947.33	19627.1	-8.63655	72.9461	0.00837186	-1.66311e-06	234.565	5.2894	1	14	0.00910329	4.63812e-07	5.03722e-05	7.65096e-06	5.095e-05	8.63655
0.155473	19924.7	2298.04	20056.8	-6.57921	100.017	0.00837175	-2.09242e-06	445.459	5.84791	1	14	0.00910333	4.53877e-07	4.95301e-05	5.71261e-06	4.98584e-05	6.57921
0.105049	20254.9	1648.9	20321.9	-4.65404	140.067	0.00837573	6.62191e-06	918.826	6.04913	1	14	0.00910228	4.47905e-07	4.90457e-05	3.99268e-06	4.92079e-05	4.65404
0.0710227	20243.3	1216.21	20279.8	-3.43817	199.288	0.00838067	1.53111e-05	1842.53	6.62678	1	14	0.00910326	4.48883e-07	4.92214e-05	2.95719e-06	4.93101e-05	3.43817
0.0479883	20192.4	1081.52	20221.4	-3.06587	286.919	0.00838466	1.89318e-05	3066.55	8.77199	1	14	0.00910297	4.50166e-07	4.93819e-05	2.64493e-06	4.94527e-05	3.06587
0.0324439	20193.9	1172.94	20228	-3.32422	416.52	0.00838075	3.6087e-05	4182.26	14.0623	1	14	0.00910261	4.50001e-07	4.93533e-05	2.86662e-06	4.94365e-05	3.32422
0.0219206	20464.7	1308.99	20506.5	-3.65983	608.321	0.00838637	4.94657e-05	5546.67	22.6005	1	14	0.00910202	4.4386e-07	4.86655e-05	3.1128e-06	4.87649e-05	3.65983
0.0148076	20276.6	1101.95	20306.6	-3.11072	892.24	0.00838854	0.000144403	9753.79	28.7226	1	14	0.00910213	4.48236e-07	4.91726e-05	2.67233e-06	4.92452e-05	3.11072
0.0100006	20534.1	422.575	20538.4	-1.17893	1312.61	0.00839571	0.000261616	37660.7	15.9427	1	14	0.00910281	4.43208e-07	4.86789e-05	1.00177e-06	4.86892e-05	1.17893