File: Python Codes/Alyssa_Old_Files/Functions.py/EIS Results/EIS_2023_07_08_Temp_In_Out_GB/0708_01_EIS_0.5MTFSI_Blocking_OutsideGB_Day_2_RT_C02.mpt
EC-Lab ASCII FILE
Nb header lines : 62

Potentio Electrochemical Impedance Spectroscopy

Run on channel : 2 (SN 35514)
User :
CE vs. WE compliance from -10 V to 10 V
Electrode connection : standard
Ewe ctrl range : min = -5.00 V, max = 5.00 V
Safety Limits :
	Do not start on E overload
Acquisition started on : 07/09/2023 14:50:14
Technique started on : 07/09/2023 14:50:16
Saved on :
	File : 0708_01_EIS_0.5MTFSI_Blocking_OutsideGB_Day_2_RT_C02.mpr
	Directory : C:\Users\CESL\Documents\EC-Lab\Data\PhD\Leifer\Results\Zn Ion GPE\2023\0708\
	Host : 10.110.196.171
Device : VSP (SN 1724172417241724)
Address : USB
EC-Lab for windows v11.16 (software)
Internet server v11.16 (firmware)
Command interpretor v11.16 (firmware)
Electrode material : Au/Pd
Initial state :
Electrolyte : NaCl (0.2M)
Comments : Fe(CN)63-/Fe(CN)64- 5.10-3 M
Reference electrode : SCE Saturated Calomel Electrode (0.241 V)
Electrode surface area : 0.001 cm²
Characteristic mass : 0.001 g
Equivalent Weight : 0.000 g/eq.
Density : 0.000 g/cm3
Cycle Definition : Charge/Discharge alternance
Mode                Single sine
E (V)               0.0000
vs.                 Eoc
tE (h:m:s)          0:00:0.0000
record              0
dI                  0.000
unit dI             mA
dt (s)              0.000
fi                  1.000
unit fi             MHz
ff                  10.000
unit ff             mHz
Nd                  6
Points              per decade
spacing             Logarithmic
Va (mV)             10.0
pw                  0.10
Na                  2
corr                1
E range min (V)     -5.000
E range max (V)     5.000
I Range             Auto
Bandwidth           5
nc cycles           0
goto Ns'            0
nr cycles           0
inc. cycle          0

freq/Hz	Re(Z)/Ohm	-Im(Z)/Ohm	|Z|/Ohm	Phase(Z)/deg	time/s	<Ewe>/V	<I>/mA	Cs/µF	Cp/µF	cycle number	I Range	|Ewe|/V	|I|/A	Re(Y)/Ohm-1	Im(Y)/Ohm-1	|Y|/Ohm-1	Phase(Y)/deg
1.00002e+06	-15.4678	8.15762	17.4871	-152.193	2.3071	-0.009512	0.00526188	0.0195096	0.00424558	1	10	0.000190503	1.08939e-05	-0.0505815	0.0266763	0.0571849	152.193
675752	39.9806	-11.0837	41.4885	15.4949	2.71608	-0.0104484	0.00117493	-0.0212494	-0.00151658	1	10	0.00121065	2.91803e-05	0.023227	-0.00643919	0.0241031	-15.4949
456640	14.9425	-2.77243	15.1976	10.5111	3.12508	-0.0104728	0.00188904	-0.125714	-0.00418369	1	10	0.00452554	0.000297781	0.0646959	-0.0120036	0.0658	-10.5111
308574	11.6683	-1.245	11.7345	6.09042	3.5341	-0.0107361	0.001477	-0.414276	-0.0046634	1	10	0.0100014	0.00085231	0.0847379	-0.00904154	0.0852189	-6.09042
208525	10.594	-0.523676	10.6069	2.82991	4.07509	-0.0107433	0.0015348	-1.45747	-0.00355259	1	10	0.0101273	0.000954782	0.0941631	-0.00465461	0.0942781	-2.82991
140908	10.1917	0.0185624	10.1917	-0.104355	4.61608	-0.0107098	0.00295181	60.8484	0.000201849	1	10	0.0101647	0.000997349	0.0981191	0.000178708	0.0981193	0.104355
95214.8	10.0464	0.497708	10.0587	-2.83617	5.1571	-0.0107221	0.00196177	3.35846	0.00822253	1	10	0.010082	0.00100232	0.0992945	0.00491915	0.0994163	2.83617
64345.7	10.0455	1.01853	10.097	-5.78956	5.56608	-0.0107062	0.00314385	2.42843	0.0247111	1	10	0.0105953	0.00104935	0.0985342	0.0099906	0.0990394	5.78956
43476.5	10.1213	1.63038	10.2518	-9.15078	5.97509	-0.0106969	0.00341047	2.24531	0.0567875	1	10	0.0105615	0.00103021	0.0963024	0.0155127	0.0975438	9.15078
29384.8	10.2669	2.40503	10.5449	-13.1839	6.38409	-0.0107002	0.00291265	2.25204	0.117149	1	10	0.010359	0.000982379	0.0923335	0.0216292	0.094833	13.1839
19853.5	10.4579	3.426	11.0048	-18.1387	6.79308	-0.0107022	0.00376472	2.33989	0.22678	1	10	0.010211	0.000927863	0.0863536	0.0282893	0.0908693	18.1387
13418	10.7066	4.82847	11.745	-24.2745	7.07008	-0.0107047	0.00391202	2.45654	0.415182	1	10	0.0109457	0.000931945	0.0776149	0.035003	0.0851427	24.2745
9082.03	10.9704	6.82011	12.9176	-31.8685	7.50734	-0.0106741	0.0044378	2.56948	0.716253	1	10	0.0101104	0.000782683	0.0657447	0.0408723	0.0774139	31.8685
6140.96	11.2893	9.7249	14.9004	-40.7424	7.91064	-0.0106956	0.00159258	2.66501	1.1352	1	10	0.0100637	0.000675399	0.0508477	0.0438014	0.0671122	40.7424
4141.32	11.6987	13.9738	18.2243	-50.0645	8.37671	-0.0106638	0.0038915	2.75021	1.61693	1	10	0.00992427	0.000544561	0.0352235	0.0420738	0.0548717	50.0645
2797.31	12.2364	20.1424	23.5679	-58.7216	8.84296	-0.0106611	0.0036025	2.82467	2.06323	1	10	0.00978491	0.000415179	0.0220298	0.0362635	0.0424306	58.7216
1890.6	13.048	29.1464	31.9337	-65.8833	9.30767	-0.0106563	0.00426812	2.88825	2.40605	1	10	0.00970622	0.000303949	0.0127952	0.0285815	0.0313148	65.8833
1287.12	14.192	41.8877	44.2266	-71.2831	10.0262	-0.0106837	0.000210961	2.95199	2.64802	1	11	0.010071	0.000227713	0.00725564	0.0214151	0.0226108	71.2831
863.066	15.914	61.0249	63.0658	-75.384	10.4932	-0.0106835	0.000298239	3.02182	2.82941	1	11	0.00981647	0.000155655	0.0040012	0.0153433	0.0158565	75.384
583.692	18.5114	88.2987	90.2182	-78.1597	10.9602	-0.0106927	0.000225878	3.08803	2.95802	1	11	0.00970631	0.000107587	0.00227432	0.0108484	0.0110842	78.1597
394.117	22.3586	127.83	129.77	-80.0788	11.4272	-0.0106889	0.000318938	3.1591	3.06532	1	11	0.00964616	7.43326e-05	0.00132769	0.00759069	0.00770593	80.0788
266.449	28.0841	184.269	186.397	-81.3343	11.8906	-0.0106834	0.000252359	3.24155	3.16796	1	11	0.00962594	5.16422e-05	0.00080832	0.00530365	0.0053649	81.3343
180.058	35.4151	267.419	269.754	-82.4561	12.6087	-0.0106795	-4.87485e-05	3.30534	3.24837	1	12	0.00970063	3.5961e-05	0.00048669	0.00367499	0.00370708	82.4561
121.595	49.8673	387.79	390.983	-82.6723	13.0691	-0.0106846	-9.19702e-05	3.37526	3.32035	1	12	0.00965467	2.46933e-05	0.000326212	0.00253677	0.00255766	82.6723
82.2368	71.6866	559.735	564.306	-82.7017	13.5243	-0.0106903	-5.2814e-05	3.45758	3.40178	1	12	0.0096225	1.70519e-05	0.000225117	0.00175773	0.00177209	82.7017
55.5152	101.344	809.372	815.692	-82.863	13.9859	-0.0106835	-8.84698e-06	3.5421	3.48742	1	12	0.00960522	1.17755e-05	0.000152316	0.00121645	0.00122595	82.863
37.5601	151.41	1163.26	1173.07	-82.5841	14.4768	-0.0106796	-4.88519e-05	3.64265	3.58197	1	12	0.00960617	8.18892e-06	0.000110029	0.000845334	0.000852464	82.5841
25.3653	232.59	1672.13	1688.23	-82.0811	15.1859	-0.0106827	-2.70675e-09	3.75242	3.68119	1	13	0.0096262	5.70195e-06	8.16071e-05	0.000586688	0.000592337	82.0811
17.1327	370.652	2389.24	2417.82	-81.1818	15.5998	-0.0106916	-1.64748e-05	3.88809	3.79671	1	13	0.0096128	3.97582e-06	6.34044e-05	0.000408708	0.000413596	81.1818
11.5912	571.055	3392.33	3440.06	-80.4446	16.0093	-0.0106878	-2.49578e-06	4.04754	3.93601	1	13	0.00960136	2.79104e-06	4.82553e-05	0.000286659	0.000290692	80.4446
7.82815	886.811	4798.05	4879.32	-79.5283	16.5913	-0.0106779	-8.95484e-06	4.23736	4.09739	1	13	0.00959825	1.96713e-06	3.72489e-05	0.000201533	0.000204947	79.5283
5.29302	1354.65	6698.64	6834.24	-78.5674	17.4277	-0.0106749	-6.15727e-06	4.48879	4.31243	1	13	0.0095941	1.40383e-06	2.90032e-05	0.000143419	0.000146322	78.5674
3.57551	1971.84	9396.71	9601.37	-78.1488	19.2513	-0.0106721	1.37876e-06	4.73703	4.53723	1	14	0.00960485	1.00036e-06	2.13897e-05	0.000101932	0.000104152	78.1488
2.41723	2812.22	13152.4	13449.7	-77.9308	21.0285	-0.0106691	2.63747e-06	5.00607	4.78721	1	14	0.00960067	7.13822e-07	1.55463e-05	7.27078e-05	7.43513e-05	77.9308
1.63271	4031.68	18403.5	18839.9	-77.6433	23.6394	-0.010674	3.40016e-07	5.29678	5.05422	1	14	0.00959968	5.09539e-07	1.13587e-05	5.18492e-05	5.30788e-05	77.6433
1.10206	5693.65	25816.3	26436.7	-77.5628	27.4883	-0.0106727	3.05894e-07	5.59399	5.33452	1	14	0.0095995	3.63113e-07	8.14662e-06	3.69386e-05	3.78263e-05	77.5628
0.745609	8111.89	36164	37062.6	-77.3573	33.1601	-0.0106669	1.10873e-06	5.90245	5.6197	1	14	0.00959782	2.58962e-07	5.9054e-06	2.63272e-05	2.69814e-05	77.3573
0.503902	11682.8	51003.7	52324.6	-77.0985	41.5359	-0.0106755	1.72381e-06	6.19259	5.88388	1	14	0.00959618	1.83397e-07	4.26712e-06	1.8629e-05	1.91115e-05	77.0985
0.340103	17343.2	71472.8	73546.9	-76.3605	53.9294	-0.010674	8.75751e-07	6.54741	6.18332	1	14	0.00959903	1.30516e-07	3.20628e-06	1.32133e-05	1.35968e-05	76.3605
0.230213	26165.7	99875.4	103246	-75.3194	72.2227	-0.0106752	7.79575e-07	6.92201	6.47743	1	14	0.00959688	9.29515e-08	2.45463e-06	9.3694e-06	9.6856e-06	75.3194
0.155473	40457.1	138242	144040	-73.6876	99.294	-0.0106772	8.62311e-07	7.40504	6.82086	1	14	0.00959732	6.66295e-08	1.94997e-06	6.66304e-06	6.94252e-06	73.6876
0.105049	63038.8	189851	200044	-71.6316	139.343	-0.0106827	9.40597e-07	7.9802	7.18774	1	14	0.00959806	4.79798e-08	1.57528e-06	4.74421e-06	4.99891e-06	71.6316
0.0710227	97866.2	255918	273993	-69.0726	198.564	-0.0106782	9.51762e-07	8.75631	7.63917	1	14	0.00959769	3.5029e-08	1.30363e-06	3.40897e-06	3.64973e-06	69.0726
0.0479883	150544	339630	371500	-66.0943	286.195	-0.0106781	8.9999e-07	9.76514	8.16158	1	14	0.00959709	2.58334e-08	1.0908e-06	2.46087e-06	2.69179e-06	66.0943
0.0324439	226003	440048	494692	-62.8156	415.796	-0.0106844	9.35528e-07	11.1477	8.821	1	14	0.00959845	1.94029e-08	9.23516e-07	1.79817e-06	2.02146e-06	62.8156
0.0219206	329563	553505	644188	-59.23	607.597	-0.0106846	8.661e-07	13.1174	9.68419	1	14	0.00959813	1.48996e-08	7.94167e-07	1.33381e-06	1.55234e-06	59.23
0.0148076	466010	682508	826428	-55.6751	891.515	-0.0106818	9.54855e-07	15.7481	10.7407	1	14	0.00959725	1.16129e-08	6.82317e-07	9.99305e-07	1.21003e-06	55.6751
0.0100006	634781	811802	1.03052e+06	-51.9767	1311.89	-0.0106793	9.30149e-07	19.6039	12.1655	1	14	0.00959888	9.31461e-09	5.9774e-07	7.64431e-07	9.70385e-07	51.9767