File: Python Codes/Alyssa_Old_Files/Functions.py/EIS Results/EIS_2023_07_08_Temp_In_Out_GB/0708_01_EIS_0.5MTFSI_Blocking_OutsideGB_24hr_60C_C03.mpt
EC-Lab ASCII FILE
Nb header lines : 62

Potentio Electrochemical Impedance Spectroscopy

Run on channel : 3 (SN 35515)
User :
CE vs. WE compliance from -10 V to 10 V
Electrode connection : standard
Ewe ctrl range : min = -5.00 V, max = 5.00 V
Safety Limits :
	Do not start on E overload
Acquisition started on : 07/09/2023 15:56:02
Technique started on : 07/09/2023 15:56:04
Saved on :
	File : 0708_01_EIS_0.5MTFSI_Blocking_OutsideGB_24hr_60C_C03.mpr
	Directory : C:\Users\CESL\Documents\EC-Lab\Data\PhD\Leifer\Results\Zn Ion GPE\2023\0708\
	Host : 10.110.196.171
Device : VSP (SN 1724172417241724)
Address : USB
EC-Lab for windows v11.16 (software)
Internet server v11.16 (firmware)
Command interpretor v11.16 (firmware)
Electrode material : Au/Pd
Initial state :
Electrolyte : NaCl (0.2M)
Comments : Fe(CN)63-/Fe(CN)64- 5.10-3 M
Reference electrode : SCE Saturated Calomel Electrode (0.241 V)
Electrode surface area : 0.001 cm²
Characteristic mass : 0.001 g
Equivalent Weight : 0.000 g/eq.
Density : 0.000 g/cm3
Cycle Definition : Charge/Discharge alternance
Mode                Single sine
E (V)               0.0000
vs.                 Eoc
tE (h:m:s)          0:00:0.0000
record              0
dI                  0.000
unit dI             mA
dt (s)              0.000
fi                  1.000
unit fi             MHz
ff                  10.000
unit ff             mHz
Nd                  6
Points              per decade
spacing             Logarithmic
Va (mV)             10.0
pw                  0.10
Na                  2
corr                1
E range min (V)     -5.000
E range max (V)     5.000
I Range             Auto
Bandwidth           5
nc cycles           0
goto Ns'            0
nr cycles           0
inc. cycle          0

freq/Hz	Re(Z)/Ohm	-Im(Z)/Ohm	|Z|/Ohm	Phase(Z)/deg	time/s	<Ewe>/V	<I>/mA	Cs/µF	Cp/µF	cycle number	I Range	|Ewe|/V	|I|/A	Re(Y)/Ohm-1	Im(Y)/Ohm-1	|Y|/Ohm-1	Phase(Y)/deg
1.00002e+06	-57.4675	18.9178	60.5012	-161.779	2.63808	-0.0158777	-0.00255332	0.00841283	0.000822533	1	11	0.000274223	4.53251e-06	-0.0156998	0.00516823	0.0165286	161.779
675752	37.4611	-10.7929	38.9849	16.0722	3.04708	-0.016545	-0.000896161	-0.021822	-0.00167254	1	11	0.00135314	3.47093e-05	0.0246483	-0.00710141	0.0256509	-16.0722
456640	22.4164	-4.02158	22.7743	10.1709	3.7501	-0.0165525	0.000870997	-0.086666	-0.00270243	1	10	0.00761201	0.000334238	0.0432192	-0.0077537	0.0439092	-10.1709
308574	18.8402	-2.13598	18.9609	6.46821	4.1591	-0.0167962	0.00183885	-0.24147	-0.00306436	1	10	0.0109044	0.000575099	0.0524044	-0.00594127	0.0527401	-6.46821
208525	17.9081	-1.22373	17.9498	3.90917	4.6991	-0.0168193	0.00213349	-0.6237	-0.00289885	1	10	0.0102493	0.000570997	0.0555812	-0.00379808	0.0557108	-3.90917
140908	17.508	-0.644192	17.5199	2.1072	5.24009	-0.0168056	0.00234049	-1.75335	-0.00237049	1	10	0.0101494	0.00057931	0.0570394	-0.00209872	0.057078	-2.1072
95214.8	17.4469	-0.229289	17.4484	0.752943	5.64909	-0.0168095	0.00165983	-7.29009	-0.00125889	1	10	0.0108211	0.000620177	0.0573069	-0.000753132	0.0573118	-0.752943
64345.7	17.4021	0.111872	17.4024	-0.368331	6.05808	-0.0167855	0.00319272	22.1095	0.000913698	1	10	0.0105293	0.00060505	0.057462	0.000369404	0.0574632	0.368331
43476.5	17.4174	0.408108	17.4222	-1.34226	6.46708	-0.0167914	0.00241322	8.96995	0.00492193	1	10	0.0103861	0.00059614	0.0573823	0.00134453	0.0573981	1.34226
29384.8	17.4953	0.750815	17.5114	-2.45735	6.87609	-0.0167977	0.00200482	7.21382	0.0132613	1	10	0.0102619	0.000586011	0.057053	0.00244844	0.0571055	2.45735
19853.5	17.582	1.14219	17.619	-3.71692	7.28509	-0.016791	0.002706	7.0185	0.0294956	1	10	0.0100366	0.000569648	0.0566374	0.00367938	0.0567568	3.71692
13418	17.7217	1.70234	17.8033	-5.48695	7.56209	-0.0168023	0.00189852	6.96768	0.0637056	1	10	0.0105629	0.000593311	0.055912	0.00537086	0.0561693	5.48695
9082.03	17.879	2.46273	18.0479	-7.8428	7.85933	-0.0167894	0.00245425	7.11574	0.132496	1	10	0.010816	0.000599296	0.0548899	0.00756076	0.0554082	7.8428
6140.96	18.1069	3.52332	18.4465	-11.0113	8.26265	-0.0168029	0.000130657	7.35582	0.268354	1	10	0.0109281	0.00059242	0.0532127	0.0103544	0.0542108	11.0113
4141.32	18.5266	5.02382	19.1956	-15.172	8.7287	-0.0167687	0.00230879	7.64974	0.523975	1	10	0.0109788	0.000571945	0.0502794	0.0136342	0.0520952	15.172
2797.31	19.0892	7.12558	20.3757	-20.4695	9.19495	-0.0167662	0.00259224	7.9847	0.976501	1	10	0.010982	0.000538972	0.0459791	0.017163	0.049078	20.4695
1890.6	19.8883	10.0234	22.2714	-26.7474	9.65971	-0.0167656	0.00274516	8.39854	1.70114	1	10	0.0109785	0.000492941	0.0400963	0.0202079	0.0449007	26.7474
1287.12	21.0112	13.9135	25.2003	-33.5124	10.1262	-0.0167639	0.00207195	8.8872	2.70911	1	10	0.0109539	0.000434672	0.0330855	0.0219091	0.039682	33.5124
863.066	22.8118	19.4656	29.9881	-40.4747	10.5932	-0.0167592	0.00251205	9.47343	3.99159	1	10	0.0109383	0.000364755	0.0253665	0.0216456	0.0333465	40.4747
583.692	25.3357	26.8736	36.9335	-46.6873	11.5342	-0.0167958	0.000170824	10.1464	5.3718	1	11	0.0102188	0.000276681	0.0185734	0.0197008	0.0270757	46.6873
394.117	28.9542	36.9032	46.9062	-51.8823	12.0012	-0.0167948	0.000344053	10.9429	6.77327	1	11	0.0101387	0.000216149	0.0131599	0.0167727	0.0213191	51.8823
266.449	33.9386	50.4212	60.7794	-56.0554	12.4647	-0.0167904	0.00019152	11.8465	8.15279	1	11	0.0100904	0.000166016	0.00918718	0.013649	0.0164529	56.0554
180.058	40.8219	68.3849	79.6424	-59.1652	12.9297	-0.0167945	0.00030657	12.9255	9.52971	1	11	0.0100569	0.000126276	0.00643583	0.0107813	0.0125561	59.1652
121.595	50.1339	92.4839	105.198	-61.5387	13.3901	-0.0167943	9.23157e-05	14.1526	10.9384	1	11	0.0100397	9.54363e-05	0.00453016	0.00835697	0.00950586	61.5387
82.2368	62.6682	124.8	139.65	-63.3364	13.8453	-0.0167928	0.000140797	15.5075	12.3846	1	11	0.0100227	7.17696e-05	0.00321338	0.00639924	0.00716074	63.3364
55.5152	80.1309	168.494	186.578	-64.5656	14.3079	-0.0167952	0.000199908	17.0147	13.8763	1	11	0.0100264	5.37383e-05	0.00230187	0.00484022	0.00535969	64.5656
37.5601	102.742	227.015	249.183	-65.6495	15.0648	-0.0167893	-1.49699e-05	18.6655	15.4922	1	12	0.0100393	4.02888e-05	0.00165468	0.00365612	0.00401312	65.6495
25.3653	133.843	306.858	334.777	-66.4344	15.5239	-0.0167942	-3.15651e-05	20.4477	17.1793	1	12	0.0100379	2.99839e-05	0.00119422	0.00273795	0.00298706	66.4344
17.1327	175.293	413.649	449.259	-67.0341	15.9379	-0.0168049	-0.000245918	22.4576	19.0386	1	12	0.0100265	2.23178e-05	0.000868504	0.00204946	0.00222589	67.0341
11.5912	234.572	557.783	605.099	-67.1911	16.3473	-0.0168021	-0.000192535	24.6164	20.9171	1	12	0.0100192	1.6558e-05	0.000640652	0.00152339	0.00165262	67.1911
7.82815	307.329	745.074	805.969	-67.5848	16.9293	-0.0167883	-5.74086e-05	27.2874	23.3197	1	12	0.0100233	1.24363e-05	0.000473115	0.001147	0.00124074	67.5848
5.29302	403.105	1006.91	1084.61	-68.182	18.1928	-0.016793	-2.07345e-05	29.8623	25.7374	1	13	0.0100284	9.24616e-06	0.000342668	0.00085595	0.000921994	68.182
3.57551	522.425	1358.49	1455.48	-68.9651	19.4073	-0.0167894	-1.25898e-05	32.7661	28.5446	1	13	0.0100241	6.88713e-06	0.00024661	0.000641273	0.000687057	68.9651
2.41723	691.503	1847.35	1972.53	-69.478	21.1845	-0.0167848	6.62381e-06	35.6412	31.261	1	13	0.0100255	5.08258e-06	0.000177724	0.00047479	0.000506963	69.478
1.63271	910.716	2507.87	2668.11	-70.0418	23.7954	-0.0167901	2.31663e-06	38.8694	34.3408	1	13	0.0100239	3.75693e-06	0.000127931	0.000352288	0.000374797	70.0418
1.10206	1199.6	3418.07	3622.47	-70.661	29.5084	-0.0167859	2.12884e-06	42.2507	37.6173	1	14	0.0100275	2.76814e-06	9.14173e-05	0.000260479	0.000276055	70.661
0.745609	1591.82	4666.28	4930.32	-71.1638	35.1801	-0.0167882	1.0744e-06	45.7444	40.9759	1	14	0.0100249	2.03332e-06	6.54854e-05	0.000191964	0.000202826	71.1638
0.503902	2118.28	6387.07	6729.18	-71.6519	43.556	-0.0167944	1.51087e-06	49.4506	44.5504	1	14	0.0100257	1.48988e-06	4.67799e-05	0.000141052	0.000148607	71.6519
0.340103	2860.63	8731.59	9188.25	-71.8603	55.9494	-0.0167877	-3.6121e-07	53.5941	48.3992	1	14	0.0100238	1.09094e-06	3.38841e-05	0.000103426	0.000108835	71.8603
0.230213	3841.95	11948.8	12551.2	-72.1756	74.2427	-0.0167859	2.3975e-06	57.8585	52.4373	1	14	0.0100235	7.98605e-07	2.43881e-05	7.5849e-05	7.96734e-05	72.1756
0.155473	5232.97	16254.2	17075.8	-72.1543	101.314	-0.0167883	-6.37327e-06	62.9796	57.0649	1	14	0.0100221	5.86918e-07	1.79467e-05	5.57446e-05	5.85623e-05	72.1543
0.105049	7211.51	22221.1	23362	-72.02	141.363	-0.0167873	-7.20758e-06	68.1809	61.6841	1	14	0.0100236	4.29056e-07	1.32131e-05	4.07142e-05	4.28046e-05	72.02
0.0710227	10362.9	30140	31871.7	-71.0258	200.584	-0.0167879	-1.18722e-06	74.3498	66.4897	1	14	0.0100237	3.14503e-07	1.02016e-05	2.9671e-05	3.13758e-05	71.0258
0.0479883	14631.6	40582.1	43139.2	-70.1736	288.215	-0.0167864	3.21295e-06	81.7241	72.3227	1	14	0.0100236	2.32355e-07	7.86227e-06	2.18067e-05	2.31808e-05	70.1736
0.0324439	21318.1	54478.7	58501.2	-68.6291	417.815	-0.0167911	-4.49438e-06	90.0451	78.0879	1	14	0.010023	1.7133e-07	6.22901e-06	1.59183e-05	1.70937e-05	68.6291
0.0219206	29799.8	70728.9	76750.3	-67.1531	609.616	-0.0167885	4.18968e-06	102.653	87.1776	1	14	0.0100227	1.30589e-07	5.05887e-06	1.20071e-05	1.30293e-05	67.1531
0.0148076	43419.7	96510	105827	-65.7771	893.534	-0.0167917	-8.31315e-06	111.369	92.6212	1	14	0.010023	9.47103e-08	3.87695e-06	8.61739e-06	9.44934e-06	65.7771
0.0100006	61074.7	124602	138765	-63.8878	1313.91	-0.0167816	-1.06339e-05	127.723	102.981	1	14	0.0100222	7.22244e-08	3.17178e-06	6.4709e-06	7.20644e-06	63.8878