File: Python Codes/Alyssa_Old_Files/Functions.py/EIS Results/EIS_2023_07_08_Temp_In_Out_GB/0708_01_EIS_0.5MTFSI_Blocking_OutsideGB_24hr_C01_C02_C03.mpt
EC-Lab ASCII FILE
Nb header lines : 62

Potentio Electrochemical Impedance Spectroscopy

Run on channel : 3 (SN 35515)
User :
CE vs. WE compliance from -10 V to 10 V
Electrode connection : standard
Ewe ctrl range : min = -5.00 V, max = 5.00 V
Safety Limits :
	Do not start on E overload
Acquisition started on : 07/09/2023 10:52:15
Technique started on : 07/09/2023 10:52:17
Saved on :
	File : 0708_01_EIS_0.5MTFSI_Blocking_OutsideGB_24hr_C01_C02_C03.mpr
	Directory : C:\Users\CESL\Documents\EC-Lab\Data\PhD\Leifer\Results\Zn Ion GPE\2023\0708\
	Host : 10.110.196.171
Device : VSP (SN 1724172417241724)
Address : USB
EC-Lab for windows v11.16 (software)
Internet server v11.16 (firmware)
Command interpretor v11.16 (firmware)
Electrode material : Au/Pd
Initial state :
Electrolyte : NaCl (0.2M)
Comments : Fe(CN)63-/Fe(CN)64- 5.10-3 M
Reference electrode : SCE Saturated Calomel Electrode (0.241 V)
Electrode surface area : 0.001 cm²
Characteristic mass : 0.001 g
Equivalent Weight : 0.000 g/eq.
Density : 0.000 g/cm3
Cycle Definition : Charge/Discharge alternance
Mode                Single sine
E (V)               0.0000
vs.                 Eoc
tE (h:m:s)          0:00:0.0000
record              0
dI                  0.000
unit dI             mA
dt (s)              0.000
fi                  1.000
unit fi             MHz
ff                  10.000
unit ff             mHz
Nd                  6
Points              per decade
spacing             Logarithmic
Va (mV)             10.0
pw                  0.10
Na                  2
corr                1
E range min (V)     -5.000
E range max (V)     5.000
I Range             Auto
Bandwidth           5
nc cycles           0
goto Ns'            0
nr cycles           0
inc. cycle          0

freq/Hz	Re(Z)/Ohm	-Im(Z)/Ohm	|Z|/Ohm	Phase(Z)/deg	time/s	<Ewe>/V	<I>/mA	Cs/µF	Cp/µF	cycle number	I Range	|Ewe|/V	|I|/A	Re(Y)/Ohm-1	Im(Y)/Ohm-1	|Y|/Ohm-1	Phase(Y)/deg
1.00002e+06	-88.3348	36.9245	95.7416	-157.315	2.48808	-0.141291	-0.00145986	0.00431019	0.000641099	1	11	0.000376071	3.92798e-06	-0.00963674	0.00402822	0.0104448	157.315
675752	52.7917	-11.5128	54.0324	12.3024	2.89708	-0.141951	-0.0007578	-0.0204576	-0.000928759	1	11	0.0018317	3.39e-05	0.0180824	-0.00394339	0.0185074	-12.3024
456640	30.6993	-3.98979	30.9575	7.40485	3.60008	-0.141912	0.00361977	-0.0873566	-0.00145099	1	10	0.00996188	0.000321792	0.0320329	-0.00416311	0.0323023	-7.40485
308574	25.4727	-2.01897	25.5526	4.5318	4.14109	-0.142198	0.0037876	-0.255465	-0.00159485	1	10	0.0101106	0.000395679	0.0390127	-0.00309215	0.039135	-4.5318
208525	23.6183	-1.1051	23.6442	2.6789	4.6821	-0.142185	0.0042706	-0.690655	-0.00150874	1	10	0.0101084	0.000427523	0.0422475	-0.00197675	0.0422937	-2.6789
140908	22.8936	-0.495112	22.8989	1.23892	5.22308	-0.142186	0.00448878	-2.28129	-0.00106649	1	10	0.0101362	0.000442652	0.04366	-0.000944221	0.0436702	-1.23892
95214.8	22.6281	-0.0847805	22.6283	0.214669	5.63209	-0.142183	0.00467527	-19.716	-0.000276764	1	10	0.0106794	0.000471948	0.0441922	-0.000165575	0.0441925	-0.214669
64345.7	22.4817	0.263859	22.4832	-0.672427	6.0401	-0.142174	0.00486175	9.37409	0.00129108	1	10	0.0104577	0.000465133	0.0444745	0.00052198	0.0444776	0.672427
43476.5	22.4682	0.608233	22.4764	-1.55067	6.44909	-0.142176	0.00401138	6.0186	0.00440738	1	10	0.0103027	0.000458378	0.0444748	0.00120397	0.0444911	1.55067
29384.8	22.5326	0.983883	22.5541	-2.50022	6.8581	-0.142173	0.00443843	5.50496	0.0104759	1	10	0.0101932	0.000451943	0.0442957	0.00193416	0.0443379	2.50022
19853.5	22.5312	1.46698	22.5789	-3.7252	7.26708	-0.142166	0.00392746	5.4646	0.0230675	1	10	0.0101493	0.000449505	0.0441955	0.00287752	0.0442891	3.7252
13418	22.6872	2.11461	22.7856	-5.32499	7.5441	-0.142178	0.0031461	5.60923	0.0483109	1	10	0.0105947	0.000464976	0.0436981	0.00407297	0.0438875	5.32499
9082.03	22.8578	3.01846	23.0562	-7.52262	7.84133	-0.142174	0.00378201	5.80566	0.0995056	1	10	0.0108154	0.000469087	0.042999	0.0056782	0.0433723	7.52262
6140.96	23.0714	4.32946	23.4741	-10.6282	8.24464	-0.142196	0.00169712	5.98619	0.203628	1	10	0.0109146	0.000464961	0.0418693	0.00785696	0.0426001	10.6282
4141.32	23.425	6.08984	24.2036	-14.5727	8.7107	-0.142161	0.00303048	6.31067	0.399508	1	10	0.0109499	0.000452409	0.0399869	0.0103955	0.0413161	14.5727
2797.31	23.9903	8.62796	25.4947	-19.7808	9.17695	-0.142159	0.00273024	6.59433	0.755246	1	10	0.010963	0.000430013	0.0369095	0.0132742	0.0392239	19.7808
1890.6	24.8878	12.157	27.6983	-26.0342	9.64271	-0.142163	0.00343701	6.92457	1.33395	1	10	0.0109588	0.000395649	0.0324399	0.015846	0.0361033	26.0342
1287.12	26.2042	16.9214	31.1928	-32.8524	10.1092	-0.142158	0.00302488	7.30746	2.15044	1	10	0.0109422	0.000350792	0.0269315	0.0173911	0.0320586	32.8524
863.066	28.2501	23.7577	36.912	-40.0631	11.0502	-0.142176	0.000503299	7.76197	3.21548	1	11	0.01002	0.000271456	0.0207341	0.0174369	0.0270915	40.0631
583.692	31.3244	32.7856	45.3444	-46.3056	11.5162	-0.142188	0.000416031	8.31674	4.34782	1	11	0.00992798	0.000218946	0.0152348	0.0159454	0.0220534	46.3056
394.117	35.8137	45.0711	57.5676	-51.5292	11.9832	-0.142189	0.000547491	8.95976	5.49209	1	11	0.00986024	0.000171281	0.0108067	0.0136001	0.0173709	51.5292
266.449	42.3262	61.2402	74.4438	-55.3497	12.4467	-0.142181	0.000628044	9.75369	6.60063	1	11	0.00981267	0.000131813	0.00763753	0.0110505	0.013433	55.3497
180.058	51.4958	82.7372	97.4539	-58.1018	12.9117	-0.142182	0.000545251	10.6834	7.70036	1	11	0.00979559	0.000100515	0.00542217	0.00871169	0.0102613	58.1018
121.595	64.0882	111.1	128.26	-60.0215	13.3721	-0.14219	0.000416213	11.7812	8.83971	1	11	0.00979063	7.63345e-05	0.00389581	0.00675359	0.00779669	60.0215
82.2368	81.3631	148.014	168.903	-61.2024	13.8273	-0.142189	0.000448099	13.0753	10.0412	1	11	0.00977659	5.7883e-05	0.00285204	0.00518836	0.00592058	61.2024
55.5152	104.366	197.587	223.456	-62.1569	14.5399	-0.142186	-3.78231e-06	14.5094	11.3444	1	12	0.00980313	4.38705e-05	0.00209013	0.00395706	0.00447515	62.1569
37.5601	135.114	261.536	294.376	-62.6784	15.0307	-0.142178	4.5405e-05	16.2017	12.7886	1	12	0.00978801	3.32501e-05	0.00155918	0.00301806	0.00339702	62.6784
25.3653	176.13	346.637	388.818	-63.0644	15.4899	-0.142189	8.54373e-05	18.1011	14.3868	1	12	0.00978699	2.51712e-05	0.00116504	0.00229289	0.0025719	63.0644
17.1327	231.079	461.216	515.866	-63.3881	15.9038	-0.1422	-0.000216718	20.1415	16.1	1	12	0.00977815	1.89548e-05	0.000868334	0.00173313	0.00193849	63.3881
11.5912	304.234	607.958	679.832	-63.4158	16.3133	-0.142199	-4.11495e-05	22.5848	18.0618	1	12	0.00977175	1.43738e-05	0.00065827	0.00131544	0.00147095	63.4158
7.82815	395.076	801.883	893.925	-63.7712	16.8943	-0.142189	-1.27799e-05	25.3542	20.4019	1	12	0.00976948	1.09287e-05	0.0004944	0.00100348	0.00111866	63.7712
5.29302	526.811	1064.68	1187.88	-63.6734	18.1577	-0.142188	2.30743e-05	28.2422	22.6875	1	13	0.0097827	8.23541e-06	0.000373343	0.000754519	0.000841834	63.6734
3.57551	690.447	1407.3	1567.55	-63.8666	19.3733	-0.142185	4.24676e-05	31.6297	25.4933	1	13	0.00977855	6.23812e-06	0.000280989	0.000572723	0.000637939	63.8666
2.41723	905.811	1862.31	2070.92	-64.0621	21.1506	-0.142182	5.0573e-05	35.3549	28.5909	1	13	0.00977439	4.71983e-06	0.000211209	0.000434237	0.000482878	64.0621
1.63271	1196.65	2463.66	2738.9	-64.0932	23.7614	-0.142186	4.90055e-05	39.5668	32.014	1	13	0.0097741	3.56862e-06	0.00015952	0.000328418	0.00036511	64.0932
1.10206	1567.57	3261.98	3619.09	-64.333	29.4744	-0.142184	5.21633e-05	44.2724	35.9665	1	14	0.00977903	2.70207e-06	0.000119682	0.000249048	0.000276312	64.333
0.745609	2055.77	4328.46	4791.84	-64.5949	35.1461	-0.142179	4.98031e-05	49.3146	40.2381	1	14	0.0097803	2.04103e-06	8.95303e-05	0.000188507	0.000208688	64.5949
0.503902	2679.44	5760.69	6353.35	-65.0557	43.5219	-0.142184	4.51494e-05	54.8276	45.0758	1	14	0.00977469	1.53851e-06	6.63802e-05	0.000142715	0.000157397	65.0557
0.340103	3531.76	7702.16	8473.28	-65.3666	55.9154	-0.142174	3.74639e-05	60.7572	50.2018	1	14	0.00977475	1.1536e-06	4.91912e-05	0.000107278	0.000118018	65.3666
0.230213	4577.29	10385.6	11349.6	-66.2153	74.2086	-0.14218	3.81936e-05	66.5669	55.7397	1	14	0.00977759	8.61495e-07	3.55345e-05	8.06258e-05	8.81091e-05	66.2153
0.155473	5986.21	14143.7	15358.4	-67.0599	101.28	-0.142175	4.78611e-05	72.3773	61.3818	1	14	0.00977271	6.36311e-07	2.53782e-05	5.99616e-05	6.51111e-05	67.0599
0.105049	7782.96	19703	21184.5	-68.4453	141.329	-0.142174	3.19749e-05	76.8945	66.5156	1	14	0.00977409	4.61379e-07	1.73423e-05	4.39032e-05	4.72043e-05	68.4453
0.0710227	10444.5	27702	29605.6	-69.342	200.55	-0.142173	2.01662e-05	80.8931	70.8251	1	14	0.00977631	3.30218e-07	1.19163e-05	3.16056e-05	3.37774e-05	69.342
0.0479883	14579.9	39593.3	42192.4	-69.7841	288.181	-0.142164	1.50444e-05	83.7651	73.7627	1	14	0.00977537	2.31685e-07	8.19005e-06	2.22409e-05	2.37009e-05	69.7841
0.0324439	20469.5	57739.7	61260.7	-70.4799	417.78	-0.142167	6.23323e-06	84.9596	75.474	1	14	0.00977552	1.59573e-07	5.45436e-06	1.53855e-05	1.63237e-05	70.4799
0.0219206	29361.6	84222.8	89194	-70.7805	609.581	-0.142174	1.11042e-06	86.2062	76.8645	1	14	0.00977343	1.09575e-07	3.69069e-06	1.05866e-05	1.12115e-05	70.7805
0.0148076	43569.5	121784	129343	-70.3148	893.499	-0.142164	-1.08455e-05	88.256	78.2417	1	14	0.00977546	7.55777e-08	2.60432e-06	7.27953e-06	7.73137e-06	70.3148
0.0100006	64400.2	175223	186683	-69.82	1313.87	-0.142172	-1.48212e-05	90.8242	80.0157	1	14	0.00977633	5.23687e-08	1.8479e-06	5.02785e-06	5.35668e-06	69.82