File: Python Codes/Alyssa_Old_Files/Functions.py/EIS Results/EIS_2023_07_08_Temp_In_Out_GB/0708_01_EIS_0.5MTFSI_SymCell_OutsideGB_unsanded_60C_C04_overnight_C05.mpt
EC-Lab ASCII FILE
Nb header lines : 62

Potentio Electrochemical Impedance Spectroscopy

Run on channel : 5 (SN 35518)
User :
CE vs. WE compliance from -10 V to 10 V
Electrode connection : standard
Ewe ctrl range : min = -5.00 V, max = 5.00 V
Safety Limits :
	Do not start on E overload
Acquisition started on : 07/10/2023 07:23:43
Technique started on : 07/10/2023 07:23:45
Saved on :
	File : 0708_01_EIS_0.5MTFSI_SymCell_OutsideGB_unsanded_60C_C04_overnight_C05.mpr
	Directory : C:\Users\CESL\Documents\EC-Lab\Data\PhD\Leifer\Results\Zn Ion GPE\2023\0708\
	Host : 10.110.196.171
Device : VSP (SN 1724172417241724)
Address : USB
EC-Lab for windows v11.16 (software)
Internet server v11.16 (firmware)
Command interpretor v11.16 (firmware)
Electrode material : Au/Pd
Initial state :
Electrolyte : NaCl (0.2M)
Comments : Fe(CN)63-/Fe(CN)64- 5.10-3 M
Reference electrode : SCE Saturated Calomel Electrode (0.241 V)
Electrode surface area : 0.001 cm²
Characteristic mass : 0.001 g
Equivalent Weight : 0.000 g/eq.
Density : 0.000 g/cm3
Cycle Definition : Charge/Discharge alternance
Mode                Single sine
E (V)               0.0000
vs.                 Eoc
tE (h:m:s)          0:00:0.0000
record              0
dI                  0.000
unit dI             mA
dt (s)              0.000
fi                  1.000
unit fi             MHz
ff                  10.000
unit ff             mHz
Nd                  6
Points              per decade
spacing             Logarithmic
Va (mV)             10.0
pw                  0.10
Na                  2
corr                1
E range min (V)     -5.000
E range max (V)     5.000
I Range             Auto
Bandwidth           5
nc cycles           0
goto Ns'            0
nr cycles           0
inc. cycle          0

freq/Hz	Re(Z)/Ohm	-Im(Z)/Ohm	|Z|/Ohm	Phase(Z)/deg	time/s	<Ewe>/V	<I>/mA	Cs/µF	Cp/µF	cycle number	I Range	|Ewe|/V	|I|/A	Re(Y)/Ohm-1	Im(Y)/Ohm-1	|Y|/Ohm-1	Phase(Y)/deg
1.00002e+06	-16.6189	-6.44997	17.8266	158.788	2.30609	-0.0106724	0.00741815	-0.0246748	-0.00323021	1	10	0.000213901	1.1999e-05	-0.0522953	-0.0202964	0.0560958	-158.788
675752	1316.78	590.021	1442.93	-24.1361	3.30309	-0.0109307	-5.37851e-05	0.000399177	6.67437e-05	1	12	0.000367068	2.54391e-07	0.000632448	0.000283385	0.000693035	24.1361
456640	38.4566	17.4272	42.221	-24.3783	4.16808	-0.0107212	0.0103229	0.0199995	0.00340733	1	10	0.0101482	0.00024036	0.0215731	0.00977617	0.0236849	24.3783
308574	29.5656	15.555	33.4078	-27.7496	4.70909	-0.0108624	0.00883789	0.0331583	0.00718841	1	10	0.0102135	0.000305723	0.0264905	0.0139371	0.0299331	27.7496
208525	29.0119	16.9202	33.5855	-30.2514	5.25009	-0.0108325	0.00911213	0.0451082	0.0114489	1	10	0.0101913	0.000303442	0.0257201	0.0150004	0.0297748	30.2514
140908	30.8784	19.7061	36.6307	-32.5454	5.79108	-0.0108053	0.00955801	0.0573169	0.016588	1	10	0.010126	0.000276436	0.0230125	0.0146862	0.0272995	32.5454
95214.8	34.0645	23.6609	41.4756	-34.7836	6.20008	-0.0108009	0.00969793	0.0706453	0.0229912	1	10	0.0103991	0.000250727	0.0198023	0.0137545	0.0241105	34.7836
64345.7	37.8768	28.8861	47.6346	-37.3304	6.60908	-0.0108035	0.00945726	0.0856271	0.0314879	1	10	0.0102572	0.00021533	0.0166927	0.0127304	0.0209931	37.3304
43476.5	43.1426	35.8128	56.07	-39.6962	7.3121	-0.0108819	0.000704526	0.102218	0.0417007	1	11	0.00974798	0.000173854	0.0137229	0.0113914	0.0178349	39.6962
29384.8	49.0889	45.2445	66.7592	-42.6663	7.72109	-0.010873	0.000654365	0.11971	0.0549848	1	11	0.0104595	0.000156675	0.0110144	0.0101518	0.0149792	42.6663
19853.5	56.4598	57.846	80.8323	-45.6948	8.1301	-0.0108919	0.000491392	0.138583	0.0709718	1	11	0.0102594	0.000126922	0.0086411	0.00885326	0.0123713	45.6948
13418	65.3606	74.4635	99.0799	-48.7248	8.40709	-0.0108862	0.000529431	0.159291	0.0899717	1	11	0.0105206	0.000106183	0.00665803	0.00758529	0.0100929	48.7248
9082.03	76.4683	96.8897	123.43	-51.7184	8.70433	-0.0108745	0.000537822	0.180867	0.111448	1	11	0.010228	8.28643e-05	0.00501925	0.00635967	0.00810174	51.7184
6140.96	90.4182	127.052	155.941	-54.5619	9.10765	-0.0108407	0.00101201	0.203987	0.135408	1	11	0.00992671	6.36568e-05	0.00371822	0.00522469	0.00641268	54.5619
4141.32	107.978	168.974	200.528	-57.4204	9.57371	-0.0108131	0.000926978	0.227438	0.161492	1	11	0.00971609	4.84526e-05	0.00268527	0.00420213	0.00498684	57.4204
2797.31	131.579	224.865	260.533	-59.6662	10.04	-0.0108107	0.000805214	0.253021	0.188485	1	11	0.00959462	3.68269e-05	0.00193847	0.00331282	0.00383829	59.6662
1890.6	161.404	301.962	342.392	-61.8748	10.5037	-0.0108086	0.00077482	0.278783	0.216833	1	11	0.00953145	2.78378e-05	0.00137678	0.00257576	0.00292063	61.8748
1287.12	205.139	402.208	451.501	-62.977	11.2222	-0.0108414	8.49636e-05	0.307434	0.24397	1	12	0.00988772	2.18997e-05	0.00100631	0.00197303	0.00221484	62.977
863.066	260.639	551.22	609.734	-64.6933	11.6892	-0.0108411	-3.57522e-05	0.334542	0.273413	1	12	0.0096728	1.58639e-05	0.000701065	0.00148267	0.00164006	64.6933
583.692	340.491	739.565	814.181	-65.2789	12.1562	-0.0108443	8.93272e-05	0.368689	0.304208	1	12	0.00956629	1.17496e-05	0.000513647	0.00111567	0.00122823	65.2789
394.117	459.316	1003.38	1103.52	-65.4033	12.6232	-0.0108386	8.26694e-05	0.402465	0.332739	1	12	0.00950919	8.61717e-06	0.000377184	0.000823966	0.000906194	65.4033
266.449	590.136	1342.65	1466.62	-66.2731	13.0867	-0.010841	1.04973e-05	0.444879	0.37285	1	12	0.00948629	6.46813e-06	0.000274358	0.000624207	0.00068184	66.2731
180.058	854.808	1790.08	1983.7	-64.4743	13.5517	-0.0108439	-1.04457e-05	0.493784	0.402094	1	12	0.00946955	4.77367e-06	0.000217228	0.000454903	0.000504108	64.4743
121.595	1176.9	2377.38	2652.74	-63.6627	14.2611	-0.0108349	-1.85073e-05	0.550559	0.442193	1	13	0.00952283	3.5898e-06	0.000167244	0.000337838	0.000376968	63.6627
82.2368	1672.6	3134.26	3552.63	-61.9134	14.7163	-0.0108272	-9.8649e-06	0.617474	0.480606	1	13	0.00948767	2.67061e-06	0.000132523	0.000248334	0.000281482	61.9134
55.5152	2423.8	4062.52	4730.63	-59.1787	15.1779	-0.010836	-1.64522e-05	0.705688	0.520434	1	13	0.0094658	2.00096e-06	0.000108307	0.000181534	0.000211388	59.1787
37.5601	3548.96	5140.14	6246.29	-55.3773	15.6688	-0.010831	-2.29956e-05	0.824364	0.558245	1	13	0.00946343	1.51505e-06	9.09613e-05	0.000131744	0.000160095	55.3773
25.3653	5093.79	6171.59	8002.2	-50.465	16.1279	-0.010836	-1.36677e-05	1.01668	0.604726	1	13	0.00945951	1.18211e-06	7.95467e-05	9.6378e-05	0.000124966	50.465
17.1327	7167.82	6920.31	9963.35	-43.9935	16.5418	-0.0108394	-1.441e-05	1.34236	0.647604	1	13	0.00946101	9.4958e-07	7.22065e-05	6.97131e-05	0.000100368	43.9935
11.5912	9594.06	7294.25	12052.1	-37.2453	16.9513	-0.0108402	-1.4949e-05	1.88239	0.689523	1	13	0.00945257	7.84312e-07	6.60511e-05	5.02179e-05	8.29734e-05	37.2453
7.82815	11940.3	7107.58	13895.6	-30.7637	17.8403	-0.0108358	-1.56035e-05	2.86048	0.748388	1	14	0.00946304	6.81008e-07	6.18385e-05	3.681e-05	7.19651e-05	30.7637
5.29302	14050.7	6452.21	15461.3	-24.6651	18.6767	-0.0108403	-1.44578e-05	4.66024	0.811581	1	14	0.00945616	6.11601e-07	5.87765e-05	2.69908e-05	6.46775e-05	24.6651
3.57551	15680.6	5548.88	16633.4	-19.4873	19.8913	-0.0108326	-1.34834e-05	8.02189	0.89274	1	14	0.00945792	5.6861e-07	5.66761e-05	2.0056e-05	6.012e-05	19.4873
2.41723	16933	4612.86	17550	-15.2387	21.6685	-0.0108323	-1.21223e-05	14.2735	0.986089	1	14	0.00945766	5.38897e-07	5.49765e-05	1.49766e-05	5.69799e-05	15.2387
1.63271	17867	3833.75	18273.6	-12.1104	24.2794	-0.0108319	-1.14123e-05	25.4266	1.11914	1	14	0.00945539	5.17433e-07	5.35058e-05	1.14809e-05	5.47237e-05	12.1104
1.10206	18559.2	3161.57	18826.5	-9.66758	28.1284	-0.0108326	-1.08062e-05	45.6786	1.28818	1	14	0.00945584	5.02262e-07	5.23622e-05	8.91995e-06	5.31165e-05	9.66758
0.745609	19115	2635.29	19295.8	-7.84961	33.8002	-0.0108317	-1.06268e-05	80.9992	1.51082	1	14	0.00945627	4.9007e-07	5.13393e-05	7.0779e-06	5.18249e-05	7.84961
0.503902	19552.8	2252.63	19682.1	-6.57192	42.1761	-0.0108302	-1.0133e-05	140.212	1.83662	1	14	0.00945652	4.80462e-07	5.04736e-05	5.81493e-06	5.08075e-05	6.57192
0.340103	19913.7	1965.9	20010.5	-5.63802	54.5696	-0.0108287	-8.5195e-06	238.039	2.29749	1	14	0.00945666	4.72584e-07	4.97319e-05	4.90957e-06	4.99736e-05	5.63802
0.230213	20206	1808.56	20286.8	-5.11468	72.8629	-0.0108274	-8.62506e-06	382.259	3.03805	1	14	0.00945639	4.66135e-07	4.90968e-05	4.39445e-06	4.92931e-05	5.11468
0.155473	20482.5	1813.99	20562.6	-5.0611	99.9342	-0.0108199	-9.61367e-06	564.326	4.39183	1	14	0.00945626	4.59876e-07	4.84423e-05	4.29021e-06	4.86319e-05	5.0611
0.105049	20739.4	1943.55	20830.2	-5.35371	139.984	-0.0108243	-9.77599e-06	779.531	6.78631	1	14	0.00945659	4.53984e-07	4.77977e-05	4.47926e-06	4.80071e-05	5.35371
0.0710227	21050.5	2239.99	21169.3	-6.07403	199.205	-0.0108235	-8.40127e-06	1000.41	11.201	1	14	0.00945609	4.46689e-07	4.6973e-05	4.99843e-06	4.72382e-05	6.07403
0.0479883	21415.6	2767.33	21593.6	-7.363	286.836	-0.0108245	-8.78358e-06	1198.46	19.6832	1	14	0.00945654	4.37932e-07	4.59281e-05	5.93486e-06	4.631e-05	7.363
0.0324439	21995.6	3441.84	22263.2	-8.89346	416.436	-0.0108235	-9.577e-06	1425.26	34.0644	1	14	0.0094563	4.24749e-07	4.43771e-05	6.94407e-06	4.49171e-05	8.89346
0.0219206	22806	4383.68	23223.5	-10.8804	608.238	-0.0108176	-1.05468e-05	1656.26	59.0134	1	14	0.00945563	4.07158e-07	4.22857e-05	8.12799e-06	4.30598e-05	10.8804
0.0148076	23915.2	5347.92	24505.8	-12.6051	892.157	-0.0108168	-1.13844e-05	2009.79	95.7153	1	14	0.00945623	3.85877e-07	3.98231e-05	8.90526e-06	4.08066e-05	12.6051
0.0100006	25523.4	6447.39	26325.2	-14.1767	1312.53	-0.0108096	-1.21267e-05	2468.36	148.059	1	14	0.00945595	3.59198e-07	3.68296e-05	9.30339e-06	3.79865e-05	14.1767