File: Python Codes/Alyssa_Old_Files/Functions.py/EIS Results/EIS_2023_07_08_Temp_In_Out_GB/0708_01_EIS_0.5MTFSI_SymCell_OutsideGB_sanded_60C_C04.mpt
EC-Lab ASCII FILE
Nb header lines : 62

Potentio Electrochemical Impedance Spectroscopy

Run on channel : 4 (SN 35517)
User :
CE vs. WE compliance from -10 V to 10 V
Electrode connection : standard
Ewe ctrl range : min = -5.00 V, max = 5.00 V
Safety Limits :
	Do not start on E overload
Acquisition started on : 07/09/2023 15:56:09
Technique started on : 07/09/2023 15:56:11
Saved on :
	File : 0708_01_EIS_0.5MTFSI_SymCell_OutsideGB_sanded_60C_C04.mpr
	Directory : C:\Users\CESL\Documents\EC-Lab\Data\PhD\Leifer\Results\Zn Ion GPE\2023\0708\
	Host : 10.110.196.171
Device : VSP (SN 1724172417241724)
Address : USB
EC-Lab for windows v11.16 (software)
Internet server v11.16 (firmware)
Command interpretor v11.16 (firmware)
Electrode material : Au/Pd
Initial state :
Electrolyte : NaCl (0.2M)
Comments : Fe(CN)63-/Fe(CN)64- 5.10-3 M
Reference electrode : SCE Saturated Calomel Electrode (0.241 V)
Electrode surface area : 0.001 cm²
Characteristic mass : 0.001 g
Equivalent Weight : 0.000 g/eq.
Density : 0.000 g/cm3
Cycle Definition : Charge/Discharge alternance
Mode                Single sine
E (V)               0.0000
vs.                 Eoc
tE (h:m:s)          0:00:0.0000
record              0
dI                  0.000
unit dI             mA
dt (s)              0.000
fi                  1.000
unit fi             MHz
ff                  10.000
unit ff             mHz
Nd                  6
Points              per decade
spacing             Logarithmic
Va (mV)             10.0
pw                  0.10
Na                  2
corr                1
E range min (V)     -5.000
E range max (V)     5.000
I Range             Auto
Bandwidth           5
nc cycles           0
goto Ns'            0
nr cycles           0
inc. cycle          0

freq/Hz	Re(Z)/Ohm	-Im(Z)/Ohm	|Z|/Ohm	Phase(Z)/deg	time/s	<Ewe>/V	<I>/mA	Cs/µF	Cp/µF	cycle number	I Range	|Ewe|/V	|I|/A	Re(Y)/Ohm-1	Im(Y)/Ohm-1	|Y|/Ohm-1	Phase(Y)/deg
1.00002e+06	217.129	-33.6488	219.72	8.80915	2.58309	0.0039575	-0.000458651	-0.0047298	-0.000110928	1	11	0.000830529	3.77993e-06	0.00449755	-0.000696993	0.00455124	-8.80915
675752	58.1297	-3.29063	58.2227	3.23997	2.99209	0.00388302	-0.000249365	-0.0715737	-0.000228627	1	11	0.00326616	5.60977e-05	0.017148	-0.00097072	0.0171754	-3.23997
456640	44.6774	-0.349395	44.6788	0.448066	3.26809	0.00412676	-0.000152095	-0.997537	-6.10042e-05	1	11	0.00904081	0.000202351	0.0223813	-0.000175031	0.022382	-0.448066
308574	40.8857	1.5998	40.917	-2.24075	3.67709	0.00401795	-5.54076e-06	0.3224	0.000492853	1	11	0.0107253	0.000262124	0.024421	0.000955558	0.0244397	2.24075
208525	39.8802	3.26558	40.0137	-4.6812	4.21809	0.00405664	-0.000133239	0.233723	0.00155669	1	11	0.0100977	0.000252356	0.0249081	0.00203959	0.0249914	4.6812
140908	40.0939	4.90922	40.3933	-6.98072	4.62708	0.00408775	0.000125331	0.230076	0.00339842	1	11	0.0107143	0.000265248	0.0245731	0.0030088	0.0247566	6.98072
95214.8	40.9127	6.4978	41.4255	-9.02441	5.0361	0.00409976	0.000155762	0.257246	0.00632917	1	11	0.0106818	0.000257857	0.0238409	0.00378644	0.0241397	9.02441
64345.7	42.1964	8.23582	42.9926	-11.0441	5.44508	0.00411176	0.000216436	0.300326	0.011021	1	11	0.0106094	0.000246773	0.022829	0.00445574	0.0232598	11.0441
43476.5	43.7254	10.2143	44.9026	-13.1486	5.85409	0.00411389	0.000122157	0.358389	0.0185453	1	11	0.0106165	0.000236435	0.0216866	0.00506603	0.0222704	13.1486
29384.8	45.3877	12.7542	47.1457	-15.6956	6.26309	0.00411656	0.00021681	0.424663	0.031079	1	11	0.0105014	0.000222744	0.0204199	0.00573811	0.0212108	15.6956
19853.5	47.4474	16.1225	50.1118	-18.7677	6.67209	0.00411546	0.000204862	0.497221	0.051468	1	11	0.0104164	0.000207864	0.0188944	0.00642028	0.0199554	18.7677
13418	49.5355	20.6497	53.6673	-22.6296	7.0811	0.00410774	0.000157628	0.574408	0.0850408	1	11	0.0103128	0.000192162	0.0171988	0.00716958	0.0186333	22.6296
9082.03	52.0436	27.0867	58.6705	-27.4953	7.51834	0.00410837	0.000233238	0.646965	0.137897	1	11	0.0100378	0.000171088	0.0151192	0.00786895	0.0170443	27.4953
6140.96	55.1283	36.2753	65.9926	-33.3455	7.92165	0.00411288	0.000232863	0.714453	0.215876	1	11	0.0102207	0.000154876	0.0126585	0.00832951	0.0151532	33.3455
4141.32	59.0409	49.2889	76.9105	-39.856	8.38768	0.00414654	0.000720317	0.779707	0.320227	1	11	0.0101153	0.00013152	0.00998117	0.00833254	0.0130021	39.856
2797.31	64.2204	67.45	93.133	-46.4051	8.85393	0.0041507	0.000814224	0.843523	0.442439	1	11	0.00994801	0.000106815	0.00740399	0.00777633	0.0107373	46.4051
1890.6	71.4504	92.7269	117.062	-52.3841	9.31868	0.00414652	0.000831212	0.907849	0.569634	1	11	0.00980984	8.38006e-05	0.00521405	0.00676669	0.00854251	52.3841
1287.12	81.1117	126.984	150.679	-57.4314	9.7852	0.00415135	0.000799287	0.973763	0.691589	1	11	0.00971205	6.44554e-05	0.00357257	0.00559301	0.00663664	57.4314
863.066	94.8206	177.119	200.904	-61.8377	10.2522	0.00414382	0.000791632	1.04114	0.809221	1	11	0.00965141	4.804e-05	0.00234924	0.00438825	0.00497751	61.8377
583.692	114.191	244.624	269.964	-64.9768	10.7192	0.00414166	0.000752986	1.11465	0.915216	1	11	0.00962415	3.56498e-05	0.00156682	0.00335651	0.0037042	64.9768
394.117	144.339	341.749	370.98	-67.103	11.4382	0.00413519	7.35003e-06	1.18165	1.00277	1	12	0.00976137	2.63124e-05	0.00104878	0.00248317	0.00269556	67.103
266.449	185.731	471.533	506.793	-68.5012	11.9016	0.00413677	-8.92059e-05	1.26676	1.09662	1	12	0.0096824	1.91053e-05	0.00072314	0.00183591	0.00197319	68.5012
180.058	252.595	654.126	701.203	-68.8856	12.3667	0.00412842	-3.33967e-05	1.35129	1.17593	1	12	0.00963292	1.37377e-05	0.000513734	0.00133038	0.00142612	68.8856
121.595	347.918	889.752	955.356	-68.6431	12.8261	0.00413067	-1.67847e-05	1.47107	1.27597	1	12	0.00961251	1.00617e-05	0.000381194	0.000974851	0.00104673	68.6431
82.2368	547.465	1206.82	1325.19	-65.599	13.2803	0.00413052	-5.74379e-05	1.60365	1.32996	1	12	0.00959809	7.24279e-06	0.000311744	0.000687203	0.000754607	65.599
55.5152	781.337	1640.32	1816.9	-64.53	13.7429	0.00413192	-5.58887e-05	1.74776	1.42454	1	12	0.00959519	5.28108e-06	0.000236688	0.000496896	0.000550388	64.53
37.5601	1191.78	2123.17	2434.79	-60.6935	14.4998	0.00413957	-3.99276e-05	1.99576	1.51759	1	13	0.00961136	3.94752e-06	0.000201037	0.000358148	0.000410714	60.6935
25.3653	1816.33	2659.82	3220.83	-55.6718	14.9589	0.0041342	-3.57706e-05	2.359	1.60879	1	13	0.00960577	2.98239e-06	0.00017509	0.0002564	0.000310479	55.6718
17.1327	2682.97	3149.38	4137.26	-49.5721	15.3729	0.00412857	-3.85893e-05	2.94965	1.7092	1	13	0.00960306	2.32112e-06	0.000156744	0.000183992	0.000241706	49.5721
11.5912	3777.45	3446.09	5113.19	-42.3736	15.7823	0.00411727	-4.12698e-05	3.9844	1.80981	1	13	0.00959344	1.87622e-06	0.000144483	0.000131808	0.000195573	42.3736
7.82815	4969.05	3476.54	6064.47	-34.9782	16.3643	0.00412957	-4.9301e-05	5.84808	1.92186	1	13	0.00959421	1.58204e-06	0.00013511	9.45283e-05	0.000164895	34.9782
5.29302	6113.84	3204.99	6902.97	-27.6644	17.2007	0.0041377	-4.05411e-05	9.38188	2.02242	1	13	0.00959449	1.38991e-06	0.000128305	6.72597e-05	0.000144865	27.6644
3.57551	7025.57	2720.8	7534.02	-21.1699	19.0243	0.0041384	-3.41266e-05	16.3601	2.13366	1	14	0.00959967	1.27418e-06	0.000123774	4.7934e-05	0.000132731	21.1699
2.41723	7665.34	2151.91	7961.67	-15.6811	20.8015	0.00413568	-3.17285e-05	30.597	2.2352	1	14	0.00959811	1.20554e-06	0.000120927	3.39481e-05	0.000125602	15.6811
1.63271	8067.46	1605.18	8225.6	-11.2532	23.4124	0.00413544	-3.13638e-05	60.728	2.3126	1	14	0.00959597	1.1666e-06	0.000119234	2.3724e-05	0.000121572	11.2532
1.10206	8282	1149.38	8361.37	-7.90109	27.2614	0.00413175	-3.15571e-05	125.647	2.37424	1	14	0.00959682	1.14776e-06	0.000118462	1.64403e-05	0.000119598	7.90109
0.745609	8370.31	796.875	8408.16	-5.43831	32.9331	0.0041358	-2.89372e-05	267.867	2.40601	1	14	0.00959598	1.14127e-06	0.000118397	1.12717e-05	0.000118932	5.43831
0.503902	8368.06	541.946	8385.59	-3.70551	41.3089	0.00413778	-2.66065e-05	582.798	2.43423	1	14	0.00959453	1.14417e-06	0.000119003	7.70706e-06	0.000119252	3.70551
0.340103	8319.35	352.985	8326.84	-2.42957	53.7023	0.00413876	-2.3878e-05	1325.72	2.38236	1	14	0.00959671	1.1525e-06	0.000119986	5.09092e-06	0.000120094	2.42957
0.230213	8236.34	224.056	8239.39	-1.55825	71.9956	0.00413671	-2.21771e-05	3085.57	2.28169	1	14	0.00959785	1.16487e-06	0.000121323	3.3004e-06	0.000121368	1.55825
0.155473	8154.69	118.833	8155.56	-0.834875	99.0668	0.00413768	-1.52129e-05	8614.48	1.82892	1	14	0.00959652	1.17668e-06	0.000122603	1.78661e-06	0.000122616	0.834875
0.105049	8079.67	40.4769	8079.77	-0.287034	139.116	0.00413685	1.06034e-05	37430.1	0.939371	1	14	0.00959614	1.18767e-06	0.000123764	6.20025e-07	0.000123766	0.287034
0.0710227	8010.29	-73.5779	8010.63	0.526271	198.337	0.00413705	1.19297e-05	-30456.2	-2.56943	1	14	0.00959692	1.19802e-06	0.000124829	-1.14661e-06	0.000124834	-0.526271
0.0479883	8121.33	-212.789	8124.12	1.50088	285.967	0.00413525	8.07217e-06	-15586	-10.6926	1	14	0.00959591	1.18116e-06	0.000123048	-3.22402e-06	0.00012309	-1.50088
0.0324439	8444.74	-494.653	8459.22	3.35229	415.567	0.00413906	0.000111737	-9917.12	-33.91	1	14	0.00959527	1.1343e-06	0.000118012	-6.91259e-06	0.000118214	-3.35229
0.0219206	9050.48	-725.816	9079.54	4.5851	607.368	0.00413759	0.000307307	-10003.3	-63.9244	1	14	0.00959526	1.0568e-06	0.000109785	-8.80438e-06	0.000110138	-4.5851
0.0148076	9605.17	-968.361	9653.86	5.75692	891.285	0.00413853	0.000380901	-11099.4	-111.679	1	14	0.00959632	9.9404e-07	0.000103063	-1.03905e-05	0.000103586	-5.75692
0.0100006	11122.9	-1077.33	11175	5.53222	1311.66	0.00413131	0.000227025	-14772.2	-137.293	1	14	0.00959556	8.58665e-07	8.90689e-05	-8.62691e-06	8.94857e-05	-5.53222