File: Python Codes/Alyssa_Old_Files/Functions.py/EIS Results/EIS_2023_07_08_Temp_In_Out_GB/0708_01_EIS_0.5MTFSI_Blocking_OutsideGB_Day_2_C01_C02.mpt
EC-Lab ASCII FILE
Nb header lines : 62

Potentio Electrochemical Impedance Spectroscopy

Run on channel : 2 (SN 35514)
User :
CE vs. WE compliance from -10 V to 10 V
Electrode connection : standard
Ewe ctrl range : min = -5.00 V, max = 5.00 V
Safety Limits :
	Do not start on E overload
Acquisition started on : 07/09/2023 10:44:58
Technique started on : 07/09/2023 10:44:59
Saved on :
	File : 0708_01_EIS_0.5MTFSI_Blocking_OutsideGB_Day_2_C01_C02.mpr
	Directory : C:\Users\CESL\Documents\EC-Lab\Data\PhD\Leifer\Results\Zn Ion GPE\2023\0708\
	Host : 10.110.196.171
Device : VSP (SN 1724172417241724)
Address : USB
EC-Lab for windows v11.16 (software)
Internet server v11.16 (firmware)
Command interpretor v11.16 (firmware)
Electrode material : Au/Pd
Initial state :
Electrolyte : NaCl (0.2M)
Comments : Fe(CN)63-/Fe(CN)64- 5.10-3 M
Reference electrode : SCE Saturated Calomel Electrode (0.241 V)
Electrode surface area : 0.001 cm²
Characteristic mass : 0.001 g
Equivalent Weight : 0.000 g/eq.
Density : 0.000 g/cm3
Cycle Definition : Charge/Discharge alternance
Mode                Single sine
E (V)               0.0000
vs.                 Eoc
tE (h:m:s)          0:00:0.0000
record              0
dI                  0.000
unit dI             mA
dt (s)              0.000
fi                  1.000
unit fi             MHz
ff                  10.000
unit ff             mHz
Nd                  6
Points              per decade
spacing             Logarithmic
Va (mV)             10.0
pw                  0.10
Na                  2
corr                1
E range min (V)     -5.000
E range max (V)     5.000
I Range             Auto
Bandwidth           5
nc cycles           0
goto Ns'            0
nr cycles           0
inc. cycle          0

freq/Hz	Re(Z)/Ohm	-Im(Z)/Ohm	|Z|/Ohm	Phase(Z)/deg	time/s	<Ewe>/V	<I>/mA	Cs/µF	Cp/µF	cycle number	I Range	|Ewe|/V	|I|/A	Re(Y)/Ohm-1	Im(Y)/Ohm-1	|Y|/Ohm-1	Phase(Y)/deg
1.00002e+06	-0.0428787	3.73138	3.73163	-90.6584	1.97408	-0.00907505	0.0328662	0.0426523	0.0426466	1	9	0.000123161	3.30047e-05	-0.00307925	0.267962	0.26798	90.6584
675752	21.5867	-9.68846	23.6612	24.1714	2.67608	-0.00987399	-0.00453973	-0.0243096	-0.00407583	1	10	0.000707077	2.98834e-05	0.0385579	-0.0173055	0.0422634	-24.1714
456640	8.39703	-2.48783	8.75782	16.5032	3.08509	-0.00989588	-0.00464227	-0.140096	-0.0113051	1	10	0.00266682	0.000304507	0.10948	-0.0324361	0.114184	-16.5032
308574	6.64319	-1.09968	6.73359	9.39926	3.49409	-0.0101405	-0.00678455	-0.469021	-0.0125094	1	10	0.00729683	0.00108365	0.146515	-0.0242535	0.148509	-9.39926
208525	6.05982	-0.41943	6.07432	3.95941	3.9031	-0.0101935	-0.0038144	-1.81971	-0.00867614	1	10	0.0106801	0.00175824	0.164235	-0.0113675	0.164628	-3.95941
140908	5.85339	0.0791886	5.85393	-0.775088	4.44408	-0.0101375	-0.000596294	14.2633	0.00261007	1	10	0.010166	0.00173661	0.17081	0.00231083	0.170825	0.775088
95214.8	5.79756	0.540002	5.82265	-5.32135	4.98508	-0.0101253	3.76282e-05	3.09542	0.0266238	1	10	0.0101162	0.00173739	0.171003	0.0159277	0.171743	5.32135
64345.7	5.83116	1.04624	5.92427	-10.1719	5.39408	-0.0101176	-0.000195427	2.36411	0.0737332	1	10	0.0107594	0.00181616	0.166144	0.02981	0.168797	10.1719
43476.5	5.92775	1.65489	6.15442	-15.5985	5.8031	-0.0101178	-0.00120412	2.21205	0.159941	1	10	0.0107108	0.00174034	0.1565	0.0436913	0.162485	15.5985
29384.8	6.0855	2.4222	6.54983	-21.7039	6.21209	-0.0101131	-4.25475e-05	2.23609	0.305807	1	10	0.0105855	0.00161615	0.141852	0.056461	0.152676	21.7039
19853.5	6.29351	3.44494	7.17467	-28.6954	6.6201	-0.0101108	0.000494413	2.32702	0.536489	1	10	0.0104058	0.00145035	0.122261	0.0669234	0.139379	28.6954
13418	6.53339	4.85779	8.14146	-36.632	7.02909	-0.0101124	-0.000917005	2.44171	0.869296	1	10	0.0101004	0.00124061	0.0985676	0.0732882	0.122828	36.632
9082.03	6.8007	6.858	9.65824	-45.2404	7.32635	-0.0100896	0.00289774	2.55529	1.28836	1	10	0.0100537	0.00104095	0.072905	0.0735193	0.103539	45.2404
6140.96	7.11825	9.78246	12.0982	-53.9584	7.72965	-0.0100947	0.00270382	2.64933	1.73218	1	10	0.00969754	0.00080157	0.0486332	0.0668356	0.082657	53.9584
4141.32	7.5325	14.0851	15.9728	-61.8629	8.19571	-0.0100587	0.00628737	2.72847	2.12168	1	10	0.00938809	0.000587756	0.0295242	0.0552077	0.0626065	61.8629
2797.31	8.06239	20.2877	21.831	-68.327	8.66195	-0.0100597	0.00663975	2.80444	2.42194	1	10	0.00917935	0.000420473	0.0169167	0.0425682	0.0458064	68.327
1890.6	8.89059	29.3517	30.6687	-73.1485	9.12668	-0.0100625	0.00650178	2.86804	2.62702	1	10	0.00907911	0.000296039	0.00945237	0.0312064	0.0326066	73.1485
1287.12	10.0257	42.1801	43.3552	-76.6296	9.8452	-0.0100802	7.68714e-05	2.93153	2.77477	1	11	0.00943777	0.000217685	0.00533375	0.0224401	0.0230653	76.6296
863.066	11.854	61.533	62.6644	-79.0958	10.3122	-0.0100927	0.000122747	2.99687	2.88963	1	11	0.00919117	0.000146673	0.00301872	0.0156699	0.015958	79.0958
583.692	14.4307	88.8931	90.0568	-80.7792	10.7792	-0.0100824	7.6868e-05	3.06738	2.98862	1	11	0.00907435	0.000100763	0.00177932	0.0109606	0.0111041	80.7792
394.117	18.1639	128.666	129.942	-81.9646	11.2462	-0.0100867	5.8404e-05	3.13856	3.07724	1	11	0.00902146	6.94269e-05	0.00107575	0.00762019	0.00769575	81.9646
266.449	24.082	186.076	187.628	-82.6257	11.7097	-0.0100886	-2.94358e-05	3.21008	3.1572	1	11	0.00899851	4.79594e-05	0.00068407	0.00528563	0.00532971	82.6257
180.058	32.8851	269.236	271.237	-83.0362	12.6477	-0.0100759	-0.000107054	3.28304	3.23478	1	12	0.0100848	3.71808e-05	0.000446996	0.00365962	0.00368682	83.0362
121.595	45.6098	388.899	391.564	-83.3109	13.1081	-0.0100813	-9.52519e-05	3.36563	3.31997	1	12	0.0100248	2.56019e-05	0.000297476	0.00253648	0.00255386	83.3109
82.2368	63.8575	566.852	570.437	-83.5726	13.5633	-0.0100789	-0.000125608	3.41417	3.37138	1	12	0.00999535	1.75223e-05	0.000196244	0.00174202	0.00175304	83.5726
55.5152	99.5095	809.55	815.643	-82.9924	14.0249	-0.0100788	-6.5139e-05	3.54132	3.48861	1	12	0.00997831	1.22337e-05	0.000149577	0.00121687	0.00122603	82.9924
37.5601	156.019	1169.91	1180.26	-82.4038	14.5168	-0.010071	-1.98538e-06	3.62195	3.55866	1	12	0.00997149	8.44853e-06	0.000112	0.000839833	0.000847268	82.4038
25.3653	234.128	1679.12	1695.36	-82.0621	15.2259	-0.0100802	-8.74218e-06	3.7368	3.66553	1	13	0.00999649	5.89637e-06	8.1457e-05	0.000584193	0.000589844	82.0621
17.1327	364.959	2399.92	2427.51	-81.3532	15.6399	-0.0100856	-1.35846e-05	3.87078	3.78329	1	13	0.00997839	4.11055e-06	6.19331e-05	0.000407263	0.000411945	81.3532
11.5912	573.975	3395.11	3443.29	-80.4043	16.0493	-0.0100859	-1.25554e-05	4.04423	3.93185	1	13	0.00996711	2.89465e-06	4.84112e-05	0.000286357	0.00029042	80.4043
7.82815	885.418	4800.34	4881.31	-79.5493	16.6303	-0.0100798	-4.77622e-06	4.23535	4.096	1	13	0.0099714	2.04277e-06	3.716e-05	0.000201465	0.000204863	79.5493
5.29302	1340.65	6733.17	6865.34	-78.739	17.4667	-0.0100762	-1.01899e-06	4.46578	4.29548	1	13	0.00996778	1.4519e-06	2.84441e-05	0.000142855	0.000145659	78.739
3.57551	1999.98	9427.22	9637.03	-78.0223	19.2904	-0.0100759	-1.09137e-06	4.72169	4.51834	1	14	0.00997255	1.03481e-06	2.15347e-05	0.000101507	0.000103766	78.0223
2.41723	2830.1	13171	13471.7	-77.8731	21.0666	-0.0100752	3.38404e-07	4.99898	4.77836	1	14	0.00996882	7.39984e-07	1.5594e-05	7.25734e-05	7.42298e-05	77.8731
1.63271	4061.13	18466.1	18907.4	-77.5968	23.6772	-0.0100735	1.16589e-06	5.27881	5.03527	1	14	0.00996913	5.2726e-07	1.13601e-05	5.16548e-05	5.28892e-05	77.5968
1.10206	5747.6	25806.2	26438.5	-77.4439	27.5276	-0.0100749	1.58706e-06	5.59618	5.3317	1	14	0.00996749	3.77007e-07	8.22269e-06	3.69191e-05	3.78237e-05	77.4439
0.745609	8243.63	36320.5	37244.3	-77.2123	33.1994	-0.0100753	8.4423e-07	5.87702	5.5891	1	14	0.00996863	2.67655e-07	5.94292e-06	2.61838e-05	2.68498e-05	77.2123
0.503902	11866.5	50971.8	52334.9	-76.8947	41.5753	-0.0100721	4.75819e-07	6.19646	5.87789	1	14	0.00996688	1.90444e-07	4.33252e-06	1.86101e-05	1.91077e-05	76.8947
0.340103	17639.9	71336.3	73485	-76.1106	53.9687	-0.0100753	1.19139e-06	6.55993	6.18193	1	14	0.00996909	1.35662e-07	3.26663e-06	1.32103e-05	1.36082e-05	76.1106
0.230213	26893.5	99571.9	103140	-74.8856	72.2619	-0.0100737	1.13997e-06	6.94311	6.47105	1	14	0.00996598	9.6626e-08	2.5281e-06	9.36018e-06	9.69558e-06	74.8856
0.155473	41681.9	137637	143810	-73.1517	99.3332	-0.0100749	1.08051e-06	7.43756	6.81275	1	14	0.00996766	6.93112e-08	2.01543e-06	6.65513e-06	6.95361e-06	73.1517
0.105049	64540.9	188047	198814	-71.0569	139.383	-0.0100772	9.73902e-07	8.0568	7.20774	1	14	0.00996708	5.01326e-08	1.63283e-06	4.75742e-06	5.02982e-06	71.0569
0.0710227	100133	252554	271680	-68.3725	198.604	-0.010078	9.80875e-07	8.87297	7.66763	1	14	0.00996718	3.66872e-08	1.35663e-06	3.42167e-06	3.6808e-06	68.3725
0.0479883	153853	333659	367422	-65.2452	286.234	-0.0100841	1.11182e-06	9.93989	8.19703	1	14	0.009965	2.71214e-08	1.13966e-06	2.47157e-06	2.72167e-06	65.2452
0.0324439	229046	430751	487861	-61.9988	415.835	-0.0100768	1.2406e-06	11.3883	8.87811	1	14	0.00996683	2.04297e-08	9.62343e-07	1.80981e-06	2.04976e-06	61.9988
0.0219206	333908	545803	639840	-58.5428	607.636	-0.0100927	1.58733e-06	13.3025	9.67968	1	14	0.00996569	1.55753e-08	8.15613e-07	1.33319e-06	1.56289e-06	58.5428
0.0148076	466893	671074	817514	-55.1721	891.554	-0.0100818	9.37729e-07	16.0164	10.7923	1	14	0.00996692	1.21917e-08	6.98597e-07	1.00411e-06	1.22322e-06	55.1721
0.0100006	633804	799777	1.02047e+06	-51.604	1311.93	-0.0100861	8.00753e-07	19.8986	12.2226	1	14	0.00996675	9.76686e-09	6.08636e-07	7.68019e-07	9.79944e-07	51.604