File: Python Codes/Alyssa_Old_Files/Functions.py/EIS Results/EIS_2023_07_08_Temp_In_Out_GB/0708_01_EIS_0.5MTFSI_Blocking_OutsideGB_Day_2_40C_C02.mpt
EC-Lab ASCII FILE
Nb header lines : 62

Potentio Electrochemical Impedance Spectroscopy

Run on channel : 2 (SN 35514)
User :
CE vs. WE compliance from -10 V to 10 V
Electrode connection : standard
Ewe ctrl range : min = -5.00 V, max = 5.00 V
Safety Limits :
	Do not start on E overload
Acquisition started on : 07/09/2023 15:25:50
Technique started on : 07/09/2023 15:25:51
Saved on :
	File : 0708_01_EIS_0.5MTFSI_Blocking_OutsideGB_Day_2_40C_C02.mpr
	Directory : C:\Users\CESL\Documents\EC-Lab\Data\PhD\Leifer\Results\Zn Ion GPE\2023\0708\
	Host : 10.110.196.171
Device : VSP (SN 1724172417241724)
Address : USB
EC-Lab for windows v11.16 (software)
Internet server v11.16 (firmware)
Command interpretor v11.16 (firmware)
Electrode material : Au/Pd
Initial state :
Electrolyte : NaCl (0.2M)
Comments : Fe(CN)63-/Fe(CN)64- 5.10-3 M
Reference electrode : SCE Saturated Calomel Electrode (0.241 V)
Electrode surface area : 0.001 cm²
Characteristic mass : 0.001 g
Equivalent Weight : 0.000 g/eq.
Density : 0.000 g/cm3
Cycle Definition : Charge/Discharge alternance
Mode                Single sine
E (V)               0.0000
vs.                 Eoc
tE (h:m:s)          0:00:0.0000
record              0
dI                  0.000
unit dI             mA
dt (s)              0.000
fi                  1.000
unit fi             MHz
ff                  10.000
unit ff             mHz
Nd                  6
Points              per decade
spacing             Logarithmic
Va (mV)             10.0
pw                  0.10
Na                  2
corr                1
E range min (V)     -5.000
E range max (V)     5.000
I Range             Auto
Bandwidth           5
nc cycles           0
goto Ns'            0
nr cycles           0
inc. cycle          0

freq/Hz	Re(Z)/Ohm	-Im(Z)/Ohm	|Z|/Ohm	Phase(Z)/deg	time/s	<Ewe>/V	<I>/mA	Cs/µF	Cp/µF	cycle number	I Range	|Ewe|/V	|I|/A	Re(Y)/Ohm-1	Im(Y)/Ohm-1	|Y|/Ohm-1	Phase(Y)/deg
1.00002e+06	0.204046	4.28161	4.28647	-87.2716	1.97509	-0.0143452	0.0128422	0.037171	0.0370868	1	9	0.000191363	4.46436e-05	0.0111053	0.233028	0.233292	87.2716
675752	35.3371	-11.2995	37.0997	17.7324	2.67809	-0.0152342	-0.00079211	-0.0208437	-0.00193353	1	10	0.00108524	2.92519e-05	0.0256738	-0.00820953	0.0269544	-17.7324
456640	13.4647	-2.78392	13.7495	11.6817	3.0871	-0.0152455	0.00108917	-0.125195	-0.00513249	1	10	0.00411056	0.00029896	0.0712234	-0.0147259	0.0727298	-11.6817
308574	10.5448	-1.27923	10.6222	6.91696	3.4961	-0.0155016	0.0011358	-0.403191	-0.0058477	1	10	0.00992733	0.000934588	0.0934577	-0.0113377	0.0941429	-6.91696
208525	9.57083	-0.553997	9.58685	3.31281	4.0371	-0.015521	0.00174362	-1.3777	-0.00460062	1	10	0.0101676	0.00106058	0.104135	-0.00602775	0.104309	-3.31281
140908	9.19905	-0.0711728	9.19932	0.443287	4.57809	-0.0155064	0.00242229	-15.8698	-0.000949918	1	10	0.0101535	0.00110372	0.1087	-0.000841012	0.108704	-0.443287
95214.8	9.07892	0.393073	9.08743	-2.47908	5.1191	-0.0154772	0.002385	4.25248	0.00795622	1	10	0.0101002	0.00111145	0.109939	0.00475983	0.110042	2.47908
64345.7	9.07123	0.861446	9.11204	-5.4248	5.52808	-0.0154795	0.00323148	2.87126	0.0256624	1	10	0.0106374	0.0011674	0.109253	0.0103752	0.109745	5.4248
43476.5	9.13361	1.4159	9.2427	-8.8119	5.9371	-0.0154627	0.00279146	2.58543	0.0606736	1	10	0.0104969	0.0011357	0.106916	0.0165743	0.108193	8.8119
29384.8	9.25523	2.10357	9.49127	-12.8049	6.3461	-0.0154762	0.00262179	2.57479	0.126475	1	10	0.0103953	0.00109525	0.10274	0.0233511	0.10536	12.8049
19853.5	9.40329	3.02489	9.87784	-17.8322	6.75508	-0.0154699	0.00334522	2.65017	0.248524	1	10	0.0102413	0.0010368	0.096373	0.0310017	0.101237	17.8322
13418	9.57996	4.29674	10.4994	-24.1569	7.1641	-0.0154625	0.00345522	2.76055	0.46232	1	10	0.0100609	0.000958232	0.0869029	0.0389771	0.0952435	24.1569
9082.03	9.79092	6.1217	11.5472	-32.0153	7.46133	-0.0154415	0.00476036	2.86263	0.804558	1	10	0.0103064	0.000892543	0.0734297	0.0459113	0.0866012	32.0153
6140.96	10.0563	8.78986	13.3563	-41.1557	7.86464	-0.0154688	0.00168208	2.94851	1.27701	1	10	0.010247	0.000767205	0.0563723	0.0492732	0.0748712	41.1557
4141.32	10.4295	12.6705	16.4109	-50.5411	8.3307	-0.0154315	0.00480324	3.03309	1.80805	1	10	0.010078	0.000614104	0.0387257	0.0470468	0.0609351	50.5411
2797.31	10.9482	18.3247	21.3462	-59.1435	8.79695	-0.0154393	0.0039176	3.10486	2.28811	1	10	0.00993243	0.000465303	0.0240273	0.0402159	0.0468468	59.1435
1890.6	11.7555	26.5318	29.0195	-66.1032	9.2617	-0.0154394	0.00499527	3.17287	2.65221	1	10	0.00983988	0.000339079	0.0139593	0.0315056	0.0344596	66.1032
1287.12	12.8433	37.9863	40.0987	-71.3194	9.98022	-0.0154623	0.000193804	3.25518	2.92124	1	11	0.0102435	0.000255456	0.00798759	0.0236247	0.0249384	71.3194
863.066	14.5294	55.3527	57.2278	-75.2923	10.4472	-0.0154589	0.000188767	3.33148	3.11674	1	11	0.00997047	0.000174224	0.00443643	0.0169015	0.017474	75.2923
583.692	16.9383	79.8925	81.6683	-78.0298	10.9142	-0.0154615	0.000180933	3.41295	3.26614	1	11	0.00983478	0.000120423	0.00253958	0.0119784	0.0122446	78.0298
394.117	20.5827	115.516	117.335	-79.897	11.3812	-0.0154594	0.000178694	3.49585	3.38828	1	11	0.0097712	8.32759e-05	0.00149502	0.00839044	0.00852259	79.897
266.449	26.1228	166.773	168.807	-81.0977	11.8447	-0.0154677	0.000264668	3.58162	3.49585	1	11	0.00974473	5.77272e-05	0.000916728	0.00585258	0.00592394	81.0977
180.058	34.2548	240.953	243.375	-81.9088	12.3097	-0.0154587	0.000245272	3.6684	3.59573	1	11	0.00973008	3.99797e-05	0.000578319	0.00406797	0.00410888	81.9088
121.595	47.0897	348.065	351.236	-82.2952	13.0191	-0.0154596	-2.24208e-05	3.76048	3.69288	1	12	0.00977586	2.78327e-05	0.000381705	0.00282138	0.00284709	82.2952
82.2368	65.9439	502.694	507.001	-82.5266	13.4743	-0.0154606	-0.000114383	3.84991	3.78478	1	12	0.00974609	1.9223e-05	0.000256542	0.00195563	0.00197238	82.5266
55.5152	101.35	722.977	730.046	-82.02	13.9369	-0.0154597	-0.000108677	3.96537	3.88895	1	12	0.00972919	1.33268e-05	0.000190162	0.00135651	0.00136978	82.02
37.5601	150.007	1039.19	1049.96	-81.7861	14.4288	-0.0154451	-3.81864e-05	4.07754	3.99431	1	12	0.00972675	9.2639e-06	0.000136071	0.000942644	0.000952415	81.7861
25.3653	222.067	1471.55	1488.21	-81.4184	14.8879	-0.0154643	-2.3018e-05	4.26389	4.16895	1	12	0.0097222	6.53282e-06	0.000100267	0.000664425	0.000671948	81.4184
17.1327	379.617	2106.31	2140.25	-79.7834	15.5298	-0.0154716	-7.42578e-06	4.41034	4.27159	1	13	0.00972621	4.54443e-06	8.28736e-05	0.000459827	0.000467235	79.7834
11.5912	590.57	2977.27	3035.28	-78.7805	15.9393	-0.0154721	-6.23433e-06	4.61181	4.43722	1	13	0.00972664	3.20453e-06	6.41023e-05	0.000323162	0.000329459	78.7805
7.82815	919.686	4161.83	4262.23	-77.539	16.5203	-0.0154532	-2.86032e-06	4.88514	4.65769	1	13	0.00972401	2.28143e-06	5.0625e-05	0.000229092	0.000234619	77.539
5.29302	1386.3	5773.26	5937.37	-76.4975	17.3567	-0.0154514	-6.55007e-06	5.20829	4.92435	1	13	0.00972103	1.63726e-06	3.93251e-05	0.000163769	0.000168425	76.4975
3.57551	2054.54	8045.72	8303.9	-75.6752	19.1794	-0.0154479	-1.07954e-06	5.53244	5.19376	1	14	0.00972582	1.17123e-06	2.97955e-05	0.000116681	0.000120425	75.6752
2.41723	3002.45	11075.7	11475.4	-74.8325	20.9566	-0.0154516	2.61196e-06	5.94473	5.53777	1	14	0.00972351	8.47334e-07	2.28002e-05	8.41072e-05	8.71429e-05	74.8325
1.63271	4304.53	15265.2	15860.5	-74.2524	23.5664	-0.015451	9.68724e-07	6.38573	5.91537	1	14	0.00972075	6.12892e-07	1.71117e-05	6.06833e-05	6.30498e-05	74.2524
1.10206	6310.98	21101.7	22025.2	-73.3494	27.4154	-0.0154484	9.66259e-07	6.84382	6.28193	1	14	0.00972055	4.41338e-07	1.30094e-05	4.34989e-05	4.54026e-05	73.3494
0.745609	9159.23	28973.3	30386.6	-72.4569	33.0872	-0.0154516	9.93158e-07	7.36734	6.69797	1	14	0.00971928	3.19854e-07	9.91962e-06	3.13787e-05	3.29093e-05	72.4569
0.503902	13791.7	39695.2	42022.9	-70.8407	41.463	-0.0154574	2.037e-06	7.95675	7.09971	1	14	0.00971858	2.31269e-07	7.80994e-06	2.24785e-05	2.37966e-05	70.8407
0.340103	20404.7	53651.2	57400.3	-69.1771	53.8563	-0.0154545	1.38373e-06	8.7223	7.6201	1	14	0.0097182	1.69306e-07	6.193e-06	1.62836e-05	1.74215e-05	69.1771
0.230213	30803.2	71504.6	77857.2	-66.6943	72.1495	-0.0154531	1.19059e-06	9.66845	8.15506	1	14	0.00971739	1.2481e-07	5.08158e-06	1.1796e-05	1.2844e-05	66.6943
0.155473	45735	93616	104190	-63.9627	99.2208	-0.0154541	1.37387e-06	10.9349	8.82796	1	14	0.00971839	9.32752e-08	4.21302e-06	8.62371e-06	9.59781e-06	63.9627
0.105049	67079.7	119460	137005	-60.6847	139.269	-0.0154548	1.35509e-06	12.6825	9.64223	1	14	0.00971761	7.09289e-08	3.5737e-06	6.36428e-06	7.299e-06	60.6847
0.0710227	95703.1	148835	176949	-57.2584	198.49	-0.0154566	1.479e-06	15.0563	10.652	1	14	0.009719	5.49254e-08	3.05654e-06	4.75345e-06	5.65135e-06	57.2584
0.0479883	132311	181083	224271	-53.8457	286.121	-0.0154622	1.58437e-06	18.315	11.9404	1	14	0.009718	4.33316e-08	2.63058e-06	3.60025e-06	4.4589e-06	53.8457
0.0324439	176880	215440	278749	-50.6134	415.721	-0.0154608	1.7503e-06	22.7699	13.6015	1	14	0.00971738	3.48607e-08	2.27642e-06	2.77268e-06	3.58746e-06	50.6134
0.0219206	227107	252725	339776	-48.0561	607.523	-0.0154617	1.77176e-06	28.7289	15.8939	1	14	0.00971715	2.85987e-08	1.96719e-06	2.18909e-06	2.94311e-06	48.0561
0.0148076	284165	292572	407858	-45.8351	891.44	-0.0154673	1.84651e-06	36.7369	18.9038	1	14	0.00971943	2.38304e-08	1.70826e-06	1.75879e-06	2.45184e-06	45.8351
0.0100006	347776	345239	490039	-44.7903	1311.81	-0.015467	1.89726e-06	46.0969	22.8798	1	14	0.00971742	1.98299e-08	1.44823e-06	1.43767e-06	2.04065e-06	44.7903