File: Python Codes/Alyssa_Old_Files/Functions.py/EIS Results/EIS_2023_07_08_Temp_In_Out_GB/0708_01_EIS_0.5MTFSI_Blocking_InsideGB_day_2_C01.mpt
EC-Lab ASCII FILE
Nb header lines : 62

Potentio Electrochemical Impedance Spectroscopy

Run on channel : 1 (SN 35512)
User :
CE vs. WE compliance from -10 V to 10 V
Electrode connection : standard
Ewe ctrl range : min = -5.00 V, max = 5.00 V
Safety Limits :
	Do not start on E overload
Acquisition started on : 07/09/2023 10:45:09
Technique started on : 07/09/2023 10:45:11
Saved on :
	File : 0708_01_EIS_0.5MTFSI_Blocking_InsideGB_day_2_C01.mpr
	Directory : C:\Users\CESL\Documents\EC-Lab\Data\PhD\Leifer\Results\Zn Ion GPE\2023\0708\
	Host : 10.110.196.171
Device : VSP (SN 1724172417241724)
Address : USB
EC-Lab for windows v11.16 (software)
Internet server v11.16 (firmware)
Command interpretor v11.16 (firmware)
Electrode material : Au/Pd
Initial state :
Electrolyte : NaCl (0.2M)
Comments : Fe(CN)63-/Fe(CN)64- 5.10-3 M
Reference electrode : SCE Saturated Calomel Electrode (0.241 V)
Electrode surface area : 0.001 cm²
Characteristic mass : 0.001 g
Equivalent Weight : 0.000 g/eq.
Density : 0.000 g/cm3
Cycle Definition : Charge/Discharge alternance
Mode                Single sine
E (V)               0.0000
vs.                 Eoc
tE (h:m:s)          0:00:0.0000
record              0
dI                  0.000
unit dI             mA
dt (s)              0.000
fi                  1.000
unit fi             MHz
ff                  10.000
unit ff             mHz
Nd                  6
Points              per decade
spacing             Logarithmic
Va (mV)             10.0
pw                  0.10
Na                  2
corr                1
E range min (V)     -5.000
E range max (V)     5.000
I Range             Auto
Bandwidth           5
nc cycles           0
goto Ns'            0
nr cycles           0
inc. cycle          0

freq/Hz	Re(Z)/Ohm	-Im(Z)/Ohm	|Z|/Ohm	Phase(Z)/deg	time/s	<Ewe>/V	<I>/mA	Cs/µF	Cp/µF	cycle number	I Range	|Ewe|/V	|I|/A	Re(Y)/Ohm-1	Im(Y)/Ohm-1	|Y|/Ohm-1	Phase(Y)/deg
1.00002e+06	-30.8194	20.0862	36.7871	-146.906	2.30608	0.0714239	0.0086799	0.00792345	0.00236221	1	10	0.000252078	6.85234e-06	-0.0227737	0.0148425	0.0271834	146.906
675752	24.7485	-10.6981	26.9618	23.3776	2.71509	0.0707968	0.0068506	-0.0220153	-0.00346612	1	10	0.00134164	4.97606e-05	0.0340448	-0.0147167	0.0370895	-23.3776
456640	13.7045	-3.57958	14.1643	14.6384	3.1241	0.0709063	0.00648699	-0.0973674	-0.00621851	1	10	0.00471139	0.000332624	0.0683083	-0.0178419	0.0706	-14.6384
308574	11.4264	-1.77228	11.5631	8.81652	3.5331	0.0707151	0.00760771	-0.291024	-0.0068367	1	10	0.0100654	0.000870477	0.0854604	-0.0132552	0.0864822	-8.81652
208525	10.6035	-0.83621	10.6364	4.5091	4.07409	0.0706787	0.00715085	-0.912737	-0.00564136	1	10	0.0101216	0.000951598	0.0937254	-0.00739133	0.0940164	-4.5091
140908	10.2876	-0.210272	10.2898	1.17092	4.61509	0.0706804	0.00791912	-5.37159	-0.00224313	1	10	0.0101465	0.000986078	0.0971637	-0.00198596	0.097184	-1.17092
95214.8	10.1718	0.360221	10.1781	-2.02821	5.15609	0.0706843	0.0074809	4.6403	0.00581229	1	10	0.0101093	0.000993237	0.0981882	0.00347722	0.0982497	2.02821
64345.7	10.1318	0.949398	10.1762	-5.35327	5.56509	0.0707025	0.00892607	2.60527	0.0226768	1	10	0.0105652	0.00103823	0.0978403	0.00916813	0.0982689	5.35327
43476.5	10.1538	1.67032	10.2902	-9.34166	5.97409	0.0706908	0.00848413	2.19162	0.0577452	1	10	0.0105214	0.00102247	0.0958908	0.0157743	0.0971796	9.34166
29384.8	10.208	2.60116	10.5342	-14.2956	6.38308	0.0706917	0.00914238	2.08224	0.126959	1	10	0.0103366	0.000981244	0.0919893	0.0234403	0.0949288	14.2956
19853.5	10.2989	3.88659	11.0079	-20.6754	6.7921	0.0707063	0.00864077	2.0626	0.257124	1	10	0.0101916	0.000925848	0.0849931	0.0320745	0.0908438	20.6754
13418	10.4615	5.70013	11.9137	-28.5844	7.06908	0.0707067	0.00887386	2.08089	0.476352	1	10	0.0109909	0.000922544	0.0737064	0.0401601	0.0839373	28.5844
9082.03	10.6779	8.29719	13.5226	-37.8487	7.50633	0.0707045	0.00941276	2.11206	0.795144	1	10	0.0102088	0.000754941	0.0583935	0.0453742	0.0739501	37.8487
6140.96	11.0168	12.0613	16.3354	-47.5913	7.90963	0.0707079	0.00872281	2.14877	1.17144	1	10	0.0100757	0.000616802	0.0412855	0.0451996	0.0612168	47.5913
4141.32	11.497	17.5035	20.9417	-56.7016	8.37569	0.0707461	0.0116971	2.19561	1.53385	1	10	0.00988352	0.000471955	0.0262157	0.039912	0.0477517	56.7016
2797.31	12.3319	25.4048	28.2397	-64.1072	8.84193	0.0707409	0.0111544	2.23956	1.81249	1	10	0.00974962	0.000345245	0.0154636	0.0318563	0.0354112	64.1072
1890.6	13.4649	36.8093	39.1947	-69.9074	9.55969	0.0707154	0.000877322	2.28698	2.01707	1	11	0.0103972	0.000265271	0.0087649	0.0239608	0.0255136	69.9074
1287.12	15.2304	52.8091	54.9615	-73.9121	10.0262	0.0707122	0.000889625	2.3415	2.16169	1	11	0.00997193	0.000181435	0.00504192	0.017482	0.0181946	73.9121
863.066	17.7863	76.7984	78.8311	-76.9604	10.4932	0.0707197	0.000895775	2.40117	2.27894	1	11	0.00975878	0.000123794	0.00286213	0.0123582	0.0126853	76.9604
583.692	21.3537	110.572	112.615	-79.0696	10.9602	0.0707135	0.000831082	2.46598	2.37732	1	11	0.00966739	8.58444e-05	0.00168376	0.0087187	0.00887979	79.0696
394.117	27.0991	159.563	161.848	-80.3613	11.4272	0.0707084	0.0010686	2.53082	2.45987	1	11	0.00961903	5.94324e-05	0.00103452	0.0060914	0.00617863	80.3613
266.449	34.8823	229.817	232.449	-81.3694	11.8907	0.0707109	0.000828843	2.5991	2.54057	1	11	0.0095911	4.1261e-05	0.000645578	0.0042533	0.00430201	81.3694
180.058	49.1147	331.938	335.552	-81.5834	12.6077	0.0707169	0.000162477	2.66288	2.60583	1	12	0.00966552	2.88048e-05	0.000436207	0.00294807	0.00298017	81.5834
121.595	69.5895	478.323	483.359	-81.7223	13.0681	0.0707187	1.19156e-05	2.73642	2.6797	1	12	0.0096178	1.98979e-05	0.000297855	0.0020473	0.00206886	81.7223
82.2368	99.86	679.168	686.47	-81.6356	13.5233	0.0707177	0.000104121	2.84955	2.78925	1	12	0.00959417	1.39761e-05	0.000211908	0.00144123	0.00145673	81.6356
55.5152	167.14	976.452	990.654	-80.2868	13.9859	0.0707192	3.65893e-05	2.93601	2.85243	1	12	0.00957996	9.67034e-06	0.000170309	0.000994964	0.00100943	80.2868
37.5601	256.014	1378.61	1402.18	-79.4797	14.4777	0.0707246	0.000133784	3.07364	2.97118	1	12	0.00957388	6.82788e-06	0.000130214	0.000701189	0.000713177	79.4797
25.3653	390.825	1971.17	2009.54	-78.7854	15.1869	0.0707201	1.91742e-05	3.18315	3.06275	1	13	0.0095964	4.77542e-06	9.67808e-05	0.000488124	0.000497626	78.7854
17.1327	606.03	2746.66	2812.72	-77.5575	15.5998	0.0707139	-7.32411e-06	3.38213	3.22512	1	13	0.00959209	3.41025e-06	7.66021e-05	0.000347177	0.000355527	77.5575
11.5912	902.854	3833.35	3938.24	-76.7469	16.0093	0.070709	4.22516e-06	3.58189	3.39363	1	13	0.00958594	2.43407e-06	5.82122e-05	0.000247158	0.000253921	76.7469
7.82815	1321.39	5222.53	5387.1	-75.8011	16.5913	0.0707206	-1.05178e-05	3.89296	3.65874	1	13	0.00957584	1.77755e-06	4.55324e-05	0.000179958	0.000185629	75.8011
5.29302	1848.04	7173.18	7407.41	-75.5529	17.4277	0.0707252	3.64705e-06	4.19184	3.93093	1	13	0.00957604	1.29277e-06	3.36805e-05	0.000130731	0.000135	75.5529
3.57551	2437.5	9915.42	10210.6	-76.1889	19.2513	0.0707299	-9.02561e-07	4.48922	4.23338	1	14	0.0095792	9.3816e-07	2.33798e-05	9.51056e-05	9.79372e-05	76.1889
2.41723	3024.64	13738	14067.1	-77.5835	21.0286	0.0707264	1.36085e-06	4.79266	4.57109	1	14	0.0095769	6.80803e-07	1.52851e-05	6.94253e-05	7.1088e-05	77.5835
1.63271	3663.85	19408.5	19751.3	-79.3098	23.6394	0.0707235	1.15186e-06	5.02251	4.84969	1	14	0.00957655	4.84858e-07	9.39177e-06	4.97509e-05	5.06297e-05	79.3098
1.10206	4500.71	27838.5	28200	-80.8163	27.4884	0.0707276	3.21357e-07	5.18763	5.05549	1	14	0.00957604	3.39576e-07	5.65957e-06	3.50065e-05	3.5461e-05	80.8163
0.745609	5578.31	40028.2	40415.1	-82.0664	33.1602	0.070724	7.39537e-07	5.33264	5.23105	1	14	0.00957458	2.36906e-07	3.4152e-06	2.45064e-05	2.47433e-05	82.0664
0.503902	7047.47	57673.2	58102.2	-83.0332	41.536	0.0707245	7.43976e-07	5.47645	5.39588	1	14	0.00957305	1.64762e-07	2.0876e-06	1.7084e-05	1.7211e-05	83.0332
0.340103	9517.13	83664.2	84203.8	-83.5103	53.9294	0.0707255	9.8701e-07	5.59333	5.52188	1	14	0.00957556	1.13719e-07	1.34228e-06	1.17999e-05	1.1876e-05	83.5103
0.230213	13058.5	120985	121688	-83.8396	72.2227	0.0707215	8.74221e-07	5.71424	5.64844	1	14	0.00957428	7.8679e-08	8.81858e-07	8.17029e-06	8.21775e-06	83.8396
0.155473	18596.7	175360	176343	-83.9465	99.2939	0.0707237	8.2005e-07	5.83763	5.77271	1	14	0.00957349	5.4289e-08	5.98026e-07	5.63915e-06	5.67077e-06	83.9465
0.105049	26927	253180	254607	-83.9291	139.343	0.0707199	7.4486e-07	5.98411	5.91717	1	14	0.00957445	3.76047e-08	4.1538e-07	3.90559e-06	3.92761e-06	83.9291
0.0710227	38940.1	365109	367180	-83.9122	198.564	0.0707202	7.89604e-07	6.13762	6.06859	1	14	0.00957304	2.60718e-08	2.88828e-07	2.7081e-06	2.72346e-06	83.9122
0.0479883	57405.1	528485	531594	-83.8007	286.195	0.0707193	5.35059e-07	6.27555	6.20237	1	14	0.00957419	1.80103e-08	2.03138e-07	1.87014e-06	1.88114e-06	83.8007
0.0324439	87966.3	765245	770284	-83.4425	415.795	0.0707171	6.44458e-07	6.41042	6.32682	1	14	0.00957371	1.24288e-08	1.48257e-07	1.28973e-06	1.29822e-06	83.4425
0.0219206	146074	1.10308e+06	1.11271e+06	-82.4566	607.596	0.0707234	8.54829e-07	6.58202	6.46858	1	14	0.00957408	8.60425e-09	1.17979e-07	8.90925e-07	8.98703e-07	82.4566
0.0148076	220662	1.57795e+06	1.59331e+06	-82.0394	891.514	0.0707166	6.72081e-07	6.81147	6.68082	1	14	0.00957258	6.00799e-09	8.69216e-08	6.21577e-07	6.27625e-07	82.0394
0.0100006	385890	2.25784e+06	2.29058e+06	-80.3012	1311.89	0.0707113	7.97804e-07	7.04853	6.84849	1	14	0.00957372	4.1796e-09	7.35481e-08	4.3033e-07	4.3657e-07	80.3012