File: Python Codes/Alyssa_Old_Files/Functions.py/EIS Results/EIS_2023_07_08_Temp_In_Out_GB/0708_01_EIS_0.5MTFSI_SymCell_OutsideGB_unsanded_60C_C04_C05.mpt
EC-Lab ASCII FILE
Nb header lines : 62

Potentio Electrochemical Impedance Spectroscopy

Run on channel : 5 (SN 35518)
User :
CE vs. WE compliance from -10 V to 10 V
Electrode connection : standard
Ewe ctrl range : min = -5.00 V, max = 5.00 V
Safety Limits :
	Do not start on E overload
Acquisition started on : 07/09/2023 15:56:20
Technique started on : 07/09/2023 15:56:21
Saved on :
	File : 0708_01_EIS_0.5MTFSI_SymCell_OutsideGB_unsanded_60C_C04_C05.mpr
	Directory : C:\Users\CESL\Documents\EC-Lab\Data\PhD\Leifer\Results\Zn Ion GPE\2023\0708\
	Host : 10.110.196.171
Device : VSP (SN 1724172417241724)
Address : USB
EC-Lab for windows v11.16 (software)
Internet server v11.16 (firmware)
Command interpretor v11.16 (firmware)
Electrode material : Au/Pd
Initial state :
Electrolyte : NaCl (0.2M)
Comments : Fe(CN)63-/Fe(CN)64- 5.10-3 M
Reference electrode : SCE Saturated Calomel Electrode (0.241 V)
Electrode surface area : 0.001 cm²
Characteristic mass : 0.001 g
Equivalent Weight : 0.000 g/eq.
Density : 0.000 g/cm3
Cycle Definition : Charge/Discharge alternance
Mode                Single sine
E (V)               0.0000
vs.                 Eoc
tE (h:m:s)          0:00:0.0000
record              0
dI                  0.000
unit dI             mA
dt (s)              0.000
fi                  1.000
unit fi             MHz
ff                  10.000
unit ff             mHz
Nd                  6
Points              per decade
spacing             Logarithmic
Va (mV)             10.0
pw                  0.10
Na                  2
corr                1
E range min (V)     -5.000
E range max (V)     5.000
I Range             Auto
Bandwidth           5
nc cycles           0
goto Ns'            0
nr cycles           0
inc. cycle          0

freq/Hz	Re(Z)/Ohm	-Im(Z)/Ohm	|Z|/Ohm	Phase(Z)/deg	time/s	<Ewe>/V	<I>/mA	Cs/µF	Cp/µF	cycle number	I Range	|Ewe|/V	|I|/A	Re(Y)/Ohm-1	Im(Y)/Ohm-1	|Y|/Ohm-1	Phase(Y)/deg
1.00002e+06	-1.33174	4.31088	4.51189	-107.167	1.97409	-0.00485511	0.0678965	0.0369187	0.0337023	1	9	0.000167532	3.71311e-05	-0.0654188	0.211762	0.221636	107.167
675752	406.073	12.0885	406.253	-1.70515	2.97109	-0.00524005	-0.000354984	0.0194832	1.72509e-05	1	11	0.000797846	1.96391e-06	0.00246043	7.32451e-05	0.00246152	1.70515
456640	23.7075	6.00697	24.4567	-14.2183	4.26209	-0.00494108	0.0150187	0.0580216	0.00350031	1	10	0.00594468	0.00024307	0.0396361	0.0100429	0.0408886	14.2183
308574	17.4114	7.03123	18.7775	-21.9903	4.67108	-0.00508514	0.0136885	0.0733549	0.0102853	1	10	0.0107871	0.00057447	0.0493808	0.0199414	0.0532553	21.9903
208525	16.3092	9.13229	18.692	-29.2465	5.2121	-0.00505064	0.0128266	0.083576	0.0199495	1	10	0.0102225	0.000546894	0.0466792	0.0261379	0.053499	29.2465
140908	16.7529	12.2192	20.7357	-36.1063	5.75309	-0.00503384	0.0124348	0.0924358	0.0320989	1	10	0.0102582	0.000494714	0.038963	0.0284189	0.048226	36.1063
95214.8	18.0587	16.4487	24.427	-42.3287	6.16208	-0.00501857	0.0125262	0.101621	0.0460795	1	10	0.0108207	0.00044298	0.0302655	0.0275672	0.0409384	42.3287
64345.7	20.3001	22.1719	30.0614	-47.5235	6.57109	-0.00504892	0.012487	0.111557	0.0606856	1	10	0.0103158	0.000343159	0.0224636	0.0245349	0.0332652	47.5235
43476.5	23.5609	29.6959	37.9073	-51.5713	6.98008	-0.00503179	0.0127874	0.123273	0.0756512	1	10	0.0102263	0.000269771	0.0163963	0.0206657	0.0263802	51.5713
29384.8	28.3645	39.711	48.8007	-54.4628	7.42009	-0.00510744	0.000357138	0.136392	0.0903143	1	11	0.0101774	0.00020855	0.0119103	0.0166747	0.0204915	54.4628
19853.5	34.6812	52.8806	63.2388	-56.7415	7.82908	-0.00510063	0.000336439	0.151596	0.106001	1	11	0.010273	0.000162448	0.00867216	0.013223	0.0158131	56.7415
13418	43.3271	69.8387	82.1868	-58.185	8.10609	-0.00509884	0.000405057	0.169839	0.122638	1	11	0.00999821	0.000121652	0.00641438	0.0103393	0.0121674	58.185
9082.03	54.5057	91.8434	106.799	-59.3124	8.40333	-0.00510744	0.000293736	0.190805	0.141107	1	11	0.00931114	8.71836e-05	0.00477866	0.00805214	0.00936336	59.3124
6140.96	68.7775	120.587	138.822	-60.3014	8.99665	-0.00507838	0.00109555	0.214924	0.162169	1	11	0.00991184	7.13998e-05	0.00356888	0.00625726	0.00720349	60.3014
4141.32	87.1123	158.574	180.926	-61.2179	9.46267	-0.00503638	0.00113582	0.242353	0.18617	1	11	0.00964221	5.32937e-05	0.0026612	0.00484428	0.00552712	61.2179
2797.31	110.922	207.902	235.641	-61.9188	9.92892	-0.00503846	0.00105862	0.273666	0.213027	1	11	0.00949087	4.02768e-05	0.00199763	0.00374417	0.00424374	61.9188
1890.6	139.314	274.942	308.223	-63.1284	10.3937	-0.00503651	0.0010424	0.306182	0.24363	1	11	0.00942169	3.05678e-05	0.00146645	0.00289408	0.00324441	63.1284
1287.12	172.549	363.694	402.549	-64.6187	11.1122	-0.00506857	6.03841e-05	0.33999	0.277523	1	12	0.00982188	2.43992e-05	0.00106481	0.00224438	0.00248417	64.6187
863.066	224.419	491.34	540.166	-65.4515	11.5792	-0.00506969	-6.01638e-05	0.375313	0.31053	1	12	0.0095811	1.77373e-05	0.000769141	0.00168395	0.00185128	65.4515
583.692	280.637	661.467	718.537	-67.0102	12.0462	-0.00507217	9.41581e-06	0.412219	0.349338	1	12	0.00945784	1.31626e-05	0.000543558	0.00128118	0.00139172	67.0102
394.117	359.606	892.616	962.33	-68.0571	12.5132	-0.00507116	-9.10097e-05	0.452408	0.389235	1	12	0.00940254	9.7706e-06	0.00038831	0.000963866	0.00103914	68.0571
266.449	456.608	1226.25	1308.51	-69.5767	12.9767	-0.00507567	3.47411e-05	0.487108	0.427794	1	12	0.00936878	7.15991e-06	0.000266681	0.000716191	0.000764231	69.5767
180.058	649.339	1673.73	1795.27	-68.7958	13.4417	-0.00506663	-1.44739e-05	0.528109	0.459021	1	12	0.00934911	5.20762e-06	0.00020147	0.000519306	0.000557018	68.7958
121.595	826.621	2301.21	2445.17	-70.2411	14.1511	-0.00506397	-1.52734e-05	0.568784	0.50378	1	13	0.00940975	3.8483e-06	0.000138257	0.000384891	0.000408969	70.2411
82.2368	1141.44	3157.68	3357.65	-70.126	14.6063	-0.00506523	-1.72895e-05	0.612895	0.542064	1	13	0.00937438	2.79195e-06	0.000101247	0.00028009	0.000297827	70.126
55.5152	1632.1	4373.8	4668.39	-69.5368	15.0679	-0.00505992	-1.76178e-05	0.655465	0.575351	1	13	0.00935641	2.00421e-06	7.48878e-05	0.000200689	0.000214207	69.5368
37.5601	2401.59	5927.45	6395.49	-67.944	15.5588	-0.00505804	-1.28844e-05	0.714867	0.614064	1	13	0.00934583	1.46131e-06	5.87153e-05	0.000144917	0.00015636	67.944
25.3653	3595.65	7963.52	8737.64	-65.7001	16.0179	-0.00505757	-5.31617e-06	0.787909	0.654482	1	13	0.00933902	1.06883e-06	4.70966e-05	0.000104308	0.000114447	65.7001
17.1327	5539.09	10415.5	11796.8	-61.9954	16.4308	-0.00506378	-6.94186e-05	0.891898	0.695261	1	13	0.00933374	7.91211e-07	3.98026e-05	7.48433e-05	8.47689e-05	61.9954
11.5912	8793.29	13110.7	15786.4	-56.1503	17.0663	-0.00506635	-1.67478e-05	1.04729	0.722349	1	14	0.00935326	5.92487e-07	3.52845e-05	5.26086e-05	6.33455e-05	56.1503
7.82815	13202.5	15425.6	20304	-49.4403	17.6473	-0.00506032	-1.80055e-05	1.31801	0.760742	1	14	0.00933712	4.59866e-07	3.20252e-05	3.74177e-05	4.92513e-05	49.4403
5.29302	18621.9	16667.2	24991.5	-41.8295	18.4837	-0.0050567	-1.70688e-05	1.80407	0.80241	1	14	0.00933829	3.73659e-07	2.98155e-05	2.66858e-05	4.00137e-05	41.8295
3.57551	24031.6	16327.5	29053.5	-34.1929	19.6983	-0.00505463	-1.50513e-05	2.72623	0.861003	1	14	0.00934045	3.21492e-07	2.84699e-05	1.9343e-05	3.44193e-05	34.1929
2.41723	29192	15207.5	32915.7	-27.5171	21.4755	-0.00505191	-1.3526e-05	4.32956	0.924174	1	14	0.00933978	2.83749e-07	2.69438e-05	1.40363e-05	3.03807e-05	27.5171
1.63271	33261.1	13188.5	35780.4	-21.629	24.0864	-0.00505318	-1.7238e-05	7.39125	1.00419	1	14	0.00933803	2.60982e-07	2.59804e-05	1.03016e-05	2.79483e-05	21.629
1.10206	36223.8	10989.9	37854.2	-16.8771	27.9354	-0.00505382	-1.93206e-05	13.1408	1.10759	1	14	0.00934057	2.46751e-07	2.52793e-05	7.66943e-06	2.64171e-05	16.8771
0.745609	38449.4	8865.7	39458.3	-12.9844	33.6072	-0.00505287	-2.06205e-05	24.0766	1.21547	1	14	0.00933986	2.36702e-07	2.46952e-05	5.69424e-06	2.53432e-05	12.9844
0.503902	39910.2	6600.7	40452.3	-9.39108	41.9831	-0.00505013	-2.66431e-05	47.8502	1.27402	1	14	0.00933853	2.30853e-07	2.43892e-05	4.03369e-06	2.47205e-05	9.39108
0.340103	40463.2	4528.23	40715.8	-6.38539	54.3766	-0.00505033	-3.58425e-05	103.343	1.27824	1	14	0.00933807	2.29348e-07	2.44081e-05	2.73151e-06	2.45605e-05	6.38539
0.230213	40588.1	2464.24	40662.9	-3.47435	72.6698	-0.00505104	-4.13399e-05	280.549	1.03033	1	14	0.00933835	2.29653e-07	2.45473e-05	1.49034e-06	2.45925e-05	3.47435
0.155473	39477	400.443	39479	-0.581172	99.7411	-0.00504733	-4.87618e-05	2556.38	0.263012	1	14	0.009338	2.36531e-07	2.53286e-05	2.56926e-07	2.53299e-05	0.581172
0.105049	37118.8	-1565.6	37151.8	2.41519	139.791	-0.00504617	-7.52543e-05	-967.715	-1.71849	1	14	0.00933906	2.51375e-07	2.68927e-05	-1.13428e-06	2.69166e-05	-2.41519
0.0710227	34465.5	-3361.73	34629.1	5.57094	199.012	-0.00504529	-9.15294e-05	-666.593	-6.28209	1	14	0.00933882	2.69682e-07	2.87411e-05	-2.80337e-06	2.88775e-05	-5.57094
0.0479883	31686.5	-3949.36	31931.7	7.10462	286.643	-0.00504447	-0.000145358	-839.766	-12.846	1	14	0.00933849	2.92452e-07	3.10764e-05	-3.87331e-06	3.13169e-05	-7.10462
0.0324439	29766.4	-2894.84	29906.8	5.55467	416.243	-0.00504716	-0.000228209	-1694.58	-15.8771	1	14	0.0093372	3.1221e-07	3.32802e-05	-3.23657e-06	3.34372e-05	-5.55467
0.0219206	27962.1	-1782	28018.9	3.64648	608.045	-0.00504921	-0.000371326	-4074.36	-16.4807	1	14	0.0093363	3.33215e-07	3.5618e-05	-2.2699e-06	3.56902e-05	-3.64648
0.0148076	26782.4	-1205.43	26809.5	2.57705	891.964	-0.00504467	-0.000484948	-8916.47	-18.026	1	14	0.00933629	3.48246e-07	3.72625e-05	-1.67712e-06	3.73002e-05	-2.57705
0.0100006	25711.5	-27.1007	25711.6	0.0603913	1312.34	-0.0050352	-0.00057349	-587236	-0.652402	1	14	0.00933561	3.6309e-07	3.8893e-05	-4.09942e-08	3.8893e-05	-0.0603913