File: Python Codes/Alyssa_Old_Files/Functions.py/EIS Results/EIS_2023_07_08_Temp_In_Out_GB/0708_01_EIS_0.5MTFSI_Blocking_InsideGB_C01.mpt
EC-Lab ASCII FILE
Nb header lines : 62

Potentio Electrochemical Impedance Spectroscopy

Run on channel : 1 (SN 35512)
User :
CE vs. WE compliance from -10 V to 10 V
Electrode connection : standard
Ewe ctrl range : min = -5.00 V, max = 5.00 V
Safety Limits :
	Do not start on E overload
Acquisition started on : 07/08/2023 16:12:25
Technique started on : 07/08/2023 16:12:27
Saved on :
	File : 0708_01_EIS_0.5MTFSI_Blocking_InsideGB_C01.mpr
	Directory : C:\Users\CESL\Documents\EC-Lab\Data\PhD\Leifer\Results\Zn Ion GPE\2023\0708\
	Host : 10.110.196.171
Device : VSP (SN 1724172417241724)
Address : USB
EC-Lab for windows v11.16 (software)
Internet server v11.16 (firmware)
Command interpretor v11.16 (firmware)
Electrode material : Au/Pd
Initial state :
Electrolyte : NaCl (0.2M)
Comments : Fe(CN)63-/Fe(CN)64- 5.10-3 M
Reference electrode : SCE Saturated Calomel Electrode (0.241 V)
Electrode surface area : 0.001 cm²
Characteristic mass : 0.001 g
Equivalent Weight : 0.000 g/eq.
Density : 0.000 g/cm3
Cycle Definition : Charge/Discharge alternance
Mode                Single sine
E (V)               0.0000
vs.                 Eoc
tE (h:m:s)          0:00:0.0000
record              0
dI                  0.000
unit dI             mA
dt (s)              0.000
fi                  1.000
unit fi             MHz
ff                  10.000
unit ff             mHz
Nd                  6
Points              per decade
spacing             Logarithmic
Va (mV)             10.0
pw                  0.10
Na                  2
corr                1
E range min (V)     -5.000
E range max (V)     5.000
I Range             Auto
Bandwidth           5
nc cycles           0
goto Ns'            0
nr cycles           0
inc. cycle          0

freq/Hz	Re(Z)/Ohm	-Im(Z)/Ohm	|Z|/Ohm	Phase(Z)/deg	time/s	<Ewe>/V	<I>/mA	Cs/µF	Cp/µF	cycle number	I Range	|Ewe|/V	|I|/A	Re(Y)/Ohm-1	Im(Y)/Ohm-1	|Y|/Ohm-1	Phase(Y)/deg
1.00002e+06	-37.8517	22.585	44.0776	-149.177	2.3061	0.371114	0.00551359	0.0070468	0.0018501	1	10	0.00029834	6.76853e-06	-0.0194827	0.0116248	0.0226873	149.177
675752	30.5663	-10.8401	32.4316	19.5267	2.71509	0.370498	0.00692519	-0.0217269	-0.00242734	1	10	0.00159395	4.91481e-05	0.0290607	-0.0103062	0.0308341	-19.5267
456640	16.6637	-3.62266	17.0529	12.2651	3.12408	0.370609	0.0084375	-0.0962095	-0.00434185	1	10	0.00561384	0.0003292	0.0573024	-0.0124574	0.0586409	-12.2651
308574	13.9116	-1.71005	14.0163	7.00778	3.53309	0.370414	0.00864077	-0.301614	-0.00448953	1	10	0.0102972	0.000734656	0.0708124	-0.00870443	0.0713454	-7.00778
208525	12.921	-0.76423	12.9436	3.3849	4.07409	0.370386	0.00830698	-0.998705	-0.0034816	1	10	0.0101391	0.000783334	0.0771238	-0.0045616	0.0772585	-3.3849
140908	12.5438	-0.0928739	12.5441	0.424209	4.61508	0.370399	0.0095004	-12.1616	-0.000666649	1	10	0.0101178	0.000806579	0.0797165	-0.00059022	0.0797186	-0.424209
95214.8	12.38	0.541636	12.3919	-2.50514	5.02409	0.370399	0.00930275	3.08609	0.00589588	1	10	0.0109366	0.000882561	0.0806209	0.00352723	0.0806981	2.50514
64345.7	12.3417	1.2071	12.4006	-5.58613	5.4331	0.37041	0.00906779	2.04907	0.0194159	1	10	0.0106925	0.000862253	0.080258	0.00784976	0.080641	5.58613
43476.5	12.3574	2.01608	12.5207	-9.26606	5.8421	0.370398	0.0102221	1.81576	0.0470775	1	10	0.0104444	0.000834165	0.0788254	0.0128602	0.0798675	9.26606
29384.8	12.4248	3.11778	12.8101	-14.0864	6.25109	0.370393	0.00958245	1.73721	0.102906	1	10	0.0103422	0.000807347	0.0757163	0.0189996	0.0780637	14.0864
19853.5	12.5365	4.6093	13.357	-20.187	6.6601	0.370394	0.0092468	1.73919	0.20711	1	10	0.0101097	0.000756888	0.0702682	0.0258356	0.0748672	20.187
13418	12.735	6.76412	14.4199	-27.9748	6.93709	0.370408	0.0104029	1.75357	0.385852	1	10	0.0107437	0.000745058	0.0612456	0.0325302	0.0693487	27.9748
9082.03	12.9722	9.81993	16.2699	-37.1257	7.23435	0.370411	0.00999082	1.78455	0.650096	1	10	0.0108689	0.000668041	0.0490055	0.0370971	0.0614633	37.1257
6140.96	13.3442	14.2649	19.5334	-46.91	7.63764	0.370412	0.0096272	1.81684	0.96894	1	10	0.010763	0.000551007	0.0349733	0.0373863	0.0511944	46.91
4141.32	13.8938	20.6842	24.9173	-56.1103	8.1037	0.37045	0.0111003	1.85799	1.28031	1	10	0.0106055	0.000425625	0.0223779	0.0333146	0.0401327	56.1103
2797.31	14.7205	30.0126	33.4282	-63.8731	8.56993	0.370447	0.0109791	1.89573	1.52811	1	10	0.0104846	0.000313645	0.0131733	0.0268582	0.0299148	63.8731
1890.6	16.0352	43.6886	46.5384	-69.8452	9.50868	0.370415	0.00118699	1.92687	1.69811	1	11	0.0101273	0.000217613	0.00740374	0.0201719	0.0214876	69.8452
1287.12	17.7728	62.7962	65.2628	-74.1973	9.97521	0.37041	0.000937164	1.9691	1.82307	1	11	0.00977593	0.000149793	0.00417276	0.0147435	0.0153227	74.1973
863.066	20.587	91.3612	93.652	-77.3013	10.4422	0.370416	0.000879555	2.01843	1.9209	1	11	0.00959896	0.000102496	0.00234725	0.0104166	0.0106778	77.3013
583.692	24.3866	132.07	134.303	-79.5382	10.9092	0.370414	0.000907892	2.06458	1.99651	1	11	0.00951862	7.08744e-05	0.00135201	0.00732209	0.00744587	79.5382
394.117	29.9621	191.017	193.352	-81.0854	11.3762	0.370418	0.000955246	2.11409	2.06332	1	11	0.00947962	4.90277e-05	0.000801445	0.00510943	0.00517191	81.0854
266.449	39.3752	277.371	280.152	-81.9204	12.0917	0.370427	0.00010207	2.1535	2.11096	1	12	0.00960615	3.42891e-05	0.000501691	0.00353406	0.00356949	81.9204
180.058	55.932	400.951	404.833	-82.0586	12.5567	0.370424	9.668e-05	2.20454	2.16246	1	12	0.00953154	2.35444e-05	0.000341277	0.00244646	0.00247015	82.0586
121.595	77.8025	578.413	583.622	-82.3391	13.0171	0.370425	0.000118556	2.2629	2.22269	1	12	0.00947672	1.62378e-05	0.000228418	0.00169814	0.00171344	82.3391
82.2368	127.481	839.013	848.643	-81.3605	13.4723	0.370423	8.14803e-06	2.30667	2.25462	1	12	0.00946283	1.11505e-05	0.000177009	0.00116498	0.00117835	81.3605
55.5152	174.018	1181.8	1194.54	-81.6235	13.9339	0.370421	5.03902e-05	2.42585	2.37437	1	12	0.00945606	7.91606e-06	0.000121953	0.00082821	0.000837141	81.6235
37.5601	287.058	1714.68	1738.54	-80.4961	14.4248	0.370422	-1.77757e-05	2.47122	2.40385	1	12	0.00945007	5.43564e-06	9.49734e-05	0.000567301	0.000575196	80.4961
25.3653	448.069	2426.41	2467.44	-79.5375	15.1339	0.370416	2.20667e-05	2.58593	2.50065	1	13	0.00945817	3.8332e-06	7.35957e-05	0.000398541	0.000405279	79.5375
17.1327	718.964	3416.18	3491.02	-78.1151	15.5478	0.370417	2.82917e-05	2.71928	2.60395	1	13	0.00945019	2.707e-06	5.89934e-05	0.000280309	0.000286449	78.1151
11.5912	1144.6	4747.63	4883.66	-76.4453	15.9573	0.370412	1.30275e-05	2.8921	2.73323	1	13	0.00944701	1.93441e-06	4.79915e-05	0.000199061	0.000204765	76.4453
7.82815	1529.39	6563.67	6739.49	-76.8837	16.5383	0.370418	1.39963e-05	3.09752	2.93801	1	13	0.00944941	1.4021e-06	3.36715e-05	0.000144508	0.000148379	76.8837
5.29302	2497.59	8969.41	9310.66	-74.4398	17.8017	0.370421	1.43865e-05	3.35237	3.11114	1	14	0.0094532	1.01531e-06	2.88112e-05	0.000103467	0.000107404	74.4398
3.57551	3379.35	12161.1	12621.9	-74.4703	19.0173	0.370424	1.06825e-05	3.66023	3.39785	1	14	0.00945383	7.49001e-07	2.12121e-05	7.63349e-05	7.92273e-05	74.4703
2.41723	4285.92	16667.9	17210.2	-75.5796	20.7945	0.370425	1.09455e-05	3.9502	3.70522	1	14	0.00944696	5.48918e-07	1.44702e-05	5.62746e-05	5.81052e-05	75.5796
1.63271	5317.43	23187.9	23789.8	-77.0843	23.4054	0.370426	1.16237e-05	4.20388	3.99385	1	14	0.00944596	3.97059e-07	9.39549e-06	4.09713e-05	4.20348e-05	77.0843
1.10206	6414.79	32901.9	33521.4	-78.9676	27.2544	0.370426	1.03904e-05	4.38929	4.22856	1	14	0.00944628	2.81799e-07	5.70873e-06	2.92804e-05	2.98317e-05	78.9676
0.745609	8010.99	46995.6	47673.4	-80.3262	32.9262	0.370429	1.03596e-05	4.54205	4.4138	1	14	0.00944682	1.98157e-07	3.52479e-06	2.06778e-05	2.0976e-05	80.3262
0.503902	10363.2	67807.7	68595.1	-81.3106	41.302	0.370427	9.55571e-06	4.65795	4.55163	1	14	0.00944529	1.37696e-07	2.20246e-06	1.4411e-05	1.45783e-05	81.3106
0.340103	14226.7	97720.5	98750.7	-81.7168	53.6955	0.370427	9.44904e-06	4.78877	4.68938	1	14	0.0094457	9.5652e-08	1.45889e-06	1.00209e-05	1.01265e-05	81.7168
0.230213	20680.1	141172	142679	-81.6661	71.9888	0.370424	8.23369e-06	4.89712	4.79424	1	14	0.00944662	6.62089e-08	1.01585e-06	6.93473e-06	7.00874e-06	81.6661
0.155473	30900.1	203179	205515	-81.3525	99.06	0.370426	7.60285e-06	5.03835	4.92445	1	14	0.00944604	4.59628e-08	7.31601e-07	4.81052e-06	4.86583e-06	81.3525
0.105049	49224	291153	295285	-80.404	139.109	0.370422	6.5279e-06	5.20363	5.05903	1	14	0.00944647	3.19911e-08	5.64539e-07	3.33917e-06	3.38656e-06	80.404
0.0710227	81176.6	418118	425925	-79.0128	198.33	0.370428	5.08729e-06	5.3595	5.16482	1	14	0.00944606	2.21778e-08	4.47471e-07	2.3048e-06	2.34783e-06	79.0128
0.0479883	127018	606464	619623	-78.1709	285.961	0.370424	3.64048e-06	5.46864	5.23884	1	14	0.00944685	1.52461e-08	3.30835e-07	1.57961e-06	1.61388e-06	78.1709
0.0324439	343894	759898	834091	-65.6507	415.561	0.370424	5.83551e-06	6.45553	5.35815	1	14	0.00944494	1.13236e-08	4.94308e-07	1.09227e-06	1.19891e-06	65.6507
0.0219206	310300	1.14238e+06	1.18378e+06	-74.8037	607.362	0.370419	7.89777e-06	6.35559	5.9189	1	14	0.00944442	7.97822e-09	2.21433e-07	8.15216e-07	8.44754e-07	74.8037
0.0148076	469103	1.80641e+06	1.86633e+06	-75.4426	891.28	0.370419	8.01998e-06	5.95001	5.57411	1	14	0.0094453	5.0609e-09	1.34676e-07	5.1861e-07	5.35811e-07	75.4426
0.0100006	840876	1.52036e+06	1.7374e+06	-61.054	1311.65	0.370413	-5.58304e-06	10.4676	8.01563	1	14	0.00944667	5.43724e-09	2.78568e-07	5.03669e-07	5.75571e-07	61.054