File: Python Codes/Alyssa_Old_Files/Functions.py/EIS Results/EIS_2023_07_08_Temp_In_Out_GB/0708_01_EIS_0.5MTFSI_Blocking_OutsideGB_24hr_RT_C03.mpt
EC-Lab ASCII FILE
Nb header lines : 62

Potentio Electrochemical Impedance Spectroscopy

Run on channel : 3 (SN 35515)
User :
CE vs. WE compliance from -10 V to 10 V
Electrode connection : standard
Ewe ctrl range : min = -5.00 V, max = 5.00 V
Safety Limits :
	Do not start on E overload
Acquisition started on : 07/09/2023 14:50:27
Technique started on : 07/09/2023 14:50:29
Saved on :
	File : 0708_01_EIS_0.5MTFSI_Blocking_OutsideGB_24hr_RT_C03.mpr
	Directory : C:\Users\CESL\Documents\EC-Lab\Data\PhD\Leifer\Results\Zn Ion GPE\2023\0708\
	Host : 10.110.196.171
Device : VSP (SN 1724172417241724)
Address : USB
EC-Lab for windows v11.16 (software)
Internet server v11.16 (firmware)
Command interpretor v11.16 (firmware)
Electrode material : Au/Pd
Initial state :
Electrolyte : NaCl (0.2M)
Comments : Fe(CN)63-/Fe(CN)64- 5.10-3 M
Reference electrode : SCE Saturated Calomel Electrode (0.241 V)
Electrode surface area : 0.001 cm²
Characteristic mass : 0.001 g
Equivalent Weight : 0.000 g/eq.
Density : 0.000 g/cm3
Cycle Definition : Charge/Discharge alternance
Mode                Single sine
E (V)               0.0000
vs.                 Eoc
tE (h:m:s)          0:00:0.0000
record              0
dI                  0.000
unit dI             mA
dt (s)              0.000
fi                  1.000
unit fi             MHz
ff                  10.000
unit ff             mHz
Nd                  6
Points              per decade
spacing             Logarithmic
Va (mV)             10.0
pw                  0.10
Na                  2
corr                1
E range min (V)     -5.000
E range max (V)     5.000
I Range             Auto
Bandwidth           5
nc cycles           0
goto Ns'            0
nr cycles           0
inc. cycle          0

freq/Hz	Re(Z)/Ohm	-Im(Z)/Ohm	|Z|/Ohm	Phase(Z)/deg	time/s	<Ewe>/V	<I>/mA	Cs/µF	Cp/µF	cycle number	I Range	|Ewe|/V	|I|/A	Re(Y)/Ohm-1	Im(Y)/Ohm-1	|Y|/Ohm-1	Phase(Y)/deg
1.00002e+06	168.511	3.72081	168.552	-1.26492	2.4871	-0.021106	-0.00130285	0.0427734	2.0844e-05	1	11	0.000518704	3.07741e-06	0.00593144	0.000130969	0.00593289	1.26492
675752	75.6026	-13.4173	76.7839	10.0636	2.8961	-0.0217601	-0.000668295	-0.0175536	-0.000535992	1	11	0.00251439	3.27464e-05	0.0128232	-0.00227575	0.0130236	-10.0636
456640	42.9276	-5.71485	43.3063	7.58307	3.30508	-0.0217496	-0.000639388	-0.0609875	-0.00106206	1	11	0.0074939	0.000173044	0.0228894	-0.00304721	0.0230913	-7.58307
308574	35.8178	-3.32238	35.9716	5.29946	3.71409	-0.0220298	-0.00074157	-0.155243	-0.00132431	1	11	0.0104552	0.000290652	0.0276809	-0.00256761	0.0277997	-5.29946
208525	33.1684	-2.07454	33.2333	3.57894	4.25509	-0.0220477	-0.000451425	-0.367908	-0.00143363	1	11	0.0100644	0.00030284	0.0300317	-0.00187835	0.0300903	-3.57894
140908	31.9597	-0.744412	31.9684	1.3343	4.95809	-0.021985	0.00315542	-1.5173	-0.000822727	1	10	0.00927551	0.000290146	0.0312724	-0.000728403	0.0312809	-1.3343
95214.8	31.4217	-0.233309	31.4226	0.425418	5.36708	-0.0219802	0.00340344	-7.16448	-0.00039497	1	10	0.010421	0.00033164	0.0318234	-0.000236291	0.0318243	-0.425418
64345.7	31.2303	0.159268	31.2307	-0.292194	5.77609	-0.0219869	0.00366265	15.53	0.000403892	1	10	0.0103681	0.000331983	0.0320193	0.000163292	0.0320198	0.292194
43476.5	31.0666	0.515594	31.0709	-0.950816	6.18509	-0.0219976	0.00321136	7.09998	0.00195508	1	10	0.0102865	0.000331065	0.03218	0.000534072	0.0321845	0.950816
29384.8	31.0959	0.894032	31.1087	-1.64685	6.59408	-0.0219805	0.00294842	6.05822	0.00500365	1	10	0.0101624	0.000326674	0.0321321	0.000923823	0.0321453	1.64685
19853.5	31.1654	1.37903	31.1958	-2.53361	6.87109	-0.0219862	0.00300437	5.81313	0.0113596	1	10	0.0109227	0.000350134	0.0320242	0.00141703	0.0320556	2.53361
13418	31.2414	2.08439	31.3108	-3.81705	7.28009	-0.0219957	0.00318899	5.69056	0.0252187	1	10	0.0101162	0.000323088	0.031867	0.00212613	0.0319378	3.81705
9082.03	31.297	3.0473	31.445	-5.56119	7.57733	-0.0219964	0.00235913	5.75072	0.0540068	1	10	0.0102926	0.000327321	0.0316519	0.00308185	0.0318016	5.56119
6140.96	31.4974	4.30731	31.7906	-7.78696	7.98063	-0.0220126	-0.000384045	6.01697	0.110457	1	10	0.0103743	0.000326333	0.0311658	0.00426195	0.0314558	7.78696
4141.32	31.7408	6.21413	32.3433	-11.0771	8.44669	-0.0219796	0.00141739	6.18445	0.228292	1	10	0.01041	0.000321858	0.0303422	0.00594033	0.0309183	11.0771
2797.31	32.0589	8.91737	33.276	-15.5442	8.91294	-0.0219774	0.00131109	6.38032	0.458198	1	10	0.0104215	0.000313185	0.0289525	0.00805331	0.0300517	15.5442
1890.6	32.804	12.8005	35.213	-21.3162	9.63068	-0.0219984	0.000345546	6.57649	0.869039	1	11	0.0106891	0.000303557	0.0264558	0.0103233	0.0283986	21.3162
1287.12	33.8809	18.1139	38.4191	-28.1306	10.0972	-0.0219964	0.000325967	6.82636	1.51747	1	11	0.0106647	0.000277587	0.0229541	0.0122721	0.0260287	28.1306
863.066	35.5893	25.9465	44.0434	-36.0941	10.5642	-0.0220054	0.000450528	7.10717	2.46657	1	11	0.0106073	0.000240839	0.0183467	0.0133758	0.0227049	36.0941
583.692	37.9601	36.5915	52.7248	-43.9483	11.0312	-0.0220019	0.000304708	7.45172	3.58911	1	11	0.0105299	0.000199714	0.0136552	0.0131629	0.0189664	43.9483
394.117	41.6588	51.441	66.1939	-50.9982	11.4982	-0.0219965	0.000408943	7.85029	4.74098	1	11	0.010472	0.000158202	0.0095076	0.0117401	0.0151071	50.9982
266.449	47.3097	71.7391	85.9343	-56.5964	11.9616	-0.0220058	0.000358036	8.32625	5.80267	1	11	0.010442	0.000121511	0.00640644	0.00971455	0.0116368	56.5964
180.058	55.8414	99.5557	114.147	-60.7117	12.4267	-0.0220021	0.000340507	8.87856	6.75373	1	11	0.0104156	9.12474e-05	0.00428574	0.00764073	0.00876061	60.7117
121.595	68.3609	137.532	153.585	-63.5701	12.8871	-0.0220055	0.000314773	9.51699	7.63152	1	11	0.0104087	6.7772e-05	0.00289809	0.00583053	0.00651107	63.5701
82.2368	85.0932	188.526	206.84	-65.7075	13.3423	-0.0219967	0.000267596	10.2656	8.52815	1	11	0.0104009	5.02847e-05	0.00198895	0.00440657	0.00483465	65.7075
55.5152	108.779	258.663	280.606	-67.1911	14.0549	-0.0220096	-0.000102382	11.0834	9.41781	1	12	0.010424	3.71482e-05	0.00138151	0.00328505	0.00356372	67.1911
37.5601	143.586	352.598	380.713	-67.8427	14.5468	-0.0220043	-2.54027e-05	12.0175	10.3081	1	12	0.0104124	2.73497e-05	0.000990643	0.00243268	0.00262665	67.8427
25.3653	191.24	479.319	516.062	-68.2488	15.0059	-0.0220043	-6.23495e-05	13.0905	11.2928	1	12	0.0104012	2.0155e-05	0.000718086	0.00179979	0.00193775	68.2488
17.1327	251.978	650.098	697.224	-68.8137	15.4188	-0.0220101	-0.000176294	14.2895	12.4231	1	12	0.0104016	1.49186e-05	0.000518345	0.00133732	0.00143426	68.8137
11.5912	342.063	877.364	941.687	-68.7004	15.8283	-0.0220133	-0.000168295	15.6499	13.5849	1	12	0.0104005	1.10445e-05	0.000385739	0.000989387	0.00106192	68.7004
7.82815	455.972	1188.66	1273.11	-69.0131	16.7173	-0.0220084	-4.87911e-06	17.1042	14.9102	1	13	0.0104081	8.1753e-06	0.000281321	0.000733369	0.000785475	69.0131
5.29302	612.404	1605.98	1718.78	-69.1268	17.5537	-0.0220033	-1.08523e-05	18.723	16.3461	1	13	0.0104019	6.05192e-06	0.000207298	0.000543624	0.000581807	69.1268
3.57551	809.383	2175.85	2321.51	-69.5956	18.7683	-0.0219965	-3.90507e-06	20.4575	17.9708	1	13	0.0104005	4.48005e-06	0.00015018	0.000403726	0.000430753	69.5956
2.41723	1077.3	2956.13	3146.31	-69.9768	20.5455	-0.021989	4.06335e-06	22.273	19.6617	1	13	0.010399	3.30515e-06	0.000108826	0.000298621	0.000317832	69.9768
1.63271	1434.41	4011.19	4259.95	-70.3229	24.4294	-0.0219907	2.21652e-08	24.3018	21.5465	1	14	0.010406	2.44276e-06	7.90431e-05	0.000221037	0.000234745	70.3229
1.10206	1906.91	5471.87	5794.63	-70.7869	28.2784	-0.0219868	8.9606e-07	26.3924	23.5342	1	14	0.0104044	1.79552e-06	5.67909e-05	0.000162962	0.000172574	70.7869
0.745609	2543.24	7467.71	7888.9	-71.1929	33.9502	-0.0219877	5.98927e-07	28.5839	25.6132	1	14	0.0104027	1.31865e-06	4.08653e-05	0.000119993	0.00012676	71.1929
0.503902	3373.2	10226.9	10768.8	-71.7455	42.326	-0.0219978	2.02019e-06	30.8838	27.8536	1	14	0.0104011	9.65854e-07	2.90875e-05	8.81875e-05	9.28608e-05	71.7455
0.340103	4539.85	14006.4	14723.8	-72.0411	54.7194	-0.0219956	-2.08841e-07	33.4105	30.2342	1	14	0.0104013	7.06427e-07	2.09413e-05	6.46083e-05	6.79174e-05	72.0411
0.230213	5986.92	19216.9	20127.9	-72.6959	73.0128	-0.0219926	3.15369e-07	35.9755	32.7927	1	14	0.0104008	5.16734e-07	1.47777e-05	4.74336e-05	4.96823e-05	72.6959
0.155473	7987	26461.5	27640.6	-73.2044	100.084	-0.0219863	4.74318e-07	38.6858	35.4556	1	14	0.0104017	3.7632e-07	1.04541e-05	3.46353e-05	3.61786e-05	73.2044
0.105049	10635.2	36642.8	38154.9	-73.8152	140.133	-0.0219878	4.68806e-07	41.3466	38.1342	1	14	0.010402	2.72626e-07	7.30538e-06	2.51702e-05	2.62089e-05	73.8152
0.0710227	14314.5	50729.7	52710.6	-74.2424	199.354	-0.02199	3.55065e-07	44.1734	40.9156	1	14	0.0104026	1.97353e-07	5.15205e-06	1.82586e-05	1.89715e-05	74.2424
0.0479883	19581.5	70598.8	73264.1	-74.498	286.985	-0.0219892	-2.31905e-07	46.9772	43.6214	1	14	0.0104013	1.4197e-07	3.64807e-06	1.31527e-05	1.36493e-05	74.498
0.0324439	26867.7	98006.4	101623	-74.6694	416.585	-0.021991	3.25793e-07	50.0532	46.5545	1	14	0.0103988	1.02328e-07	2.60166e-06	9.49018e-06	9.84034e-06	74.6694
0.0219206	37488.4	136634	141684	-74.6573	608.386	-0.0219966	-4.25549e-06	53.1384	49.4183	1	14	0.0104012	7.34111e-08	1.86749e-06	6.80643e-06	7.05798e-06	74.6573
0.0148076	53127.7	187910	195276	-74.2128	892.304	-0.0219987	2.21712e-07	57.1986	52.9648	1	14	0.0104015	5.32657e-08	1.39323e-06	4.92779e-06	5.12096e-06	74.2128
0.0100006	76460.5	261026	271994	-73.6735	1312.68	-0.0219928	1.78259e-07	60.9689	56.151	1	14	0.0104028	3.82465e-08	1.03352e-06	3.52829e-06	3.67655e-06	73.6735