File: Python Codes/Alyssa_Old_Files/Functions.py/EIS Results/EIS_2023_07_08_Temp_In_Out_GB/0708_01_EIS_0.5MTFSI_Blocking_InsideGB_day_2_RT_C01.mpt
EC-Lab ASCII FILE
Nb header lines : 62

Potentio Electrochemical Impedance Spectroscopy

Run on channel : 1 (SN 35512)
User :
CE vs. WE compliance from -10 V to 10 V
Electrode connection : standard
Ewe ctrl range : min = -5.00 V, max = 5.00 V
Safety Limits :
	Do not start on E overload
Acquisition started on : 07/09/2023 14:50:00
Technique started on : 07/09/2023 14:50:02
Saved on :
	File : 0708_01_EIS_0.5MTFSI_Blocking_InsideGB_day_2_RT_C01.mpr
	Directory : C:\Users\CESL\Documents\EC-Lab\Data\PhD\Leifer\Results\Zn Ion GPE\2023\0708\
	Host : 10.110.196.171
Device : VSP (SN 1724172417241724)
Address : USB
EC-Lab for windows v11.16 (software)
Internet server v11.16 (firmware)
Command interpretor v11.16 (firmware)
Electrode material : Au/Pd
Initial state :
Electrolyte : NaCl (0.2M)
Comments : Fe(CN)63-/Fe(CN)64- 5.10-3 M
Reference electrode : SCE Saturated Calomel Electrode (0.241 V)
Electrode surface area : 0.001 cm²
Characteristic mass : 0.001 g
Equivalent Weight : 0.000 g/eq.
Density : 0.000 g/cm3
Cycle Definition : Charge/Discharge alternance
Mode                Single sine
E (V)               0.0000
vs.                 Eoc
tE (h:m:s)          0:00:0.0000
record              0
dI                  0.000
unit dI             mA
dt (s)              0.000
fi                  1.000
unit fi             MHz
ff                  10.000
unit ff             mHz
Nd                  6
Points              per decade
spacing             Logarithmic
Va (mV)             10.0
pw                  0.10
Na                  2
corr                1
E range min (V)     -5.000
E range max (V)     5.000
I Range             Auto
Bandwidth           5
nc cycles           0
goto Ns'            0
nr cycles           0
inc. cycle          0

freq/Hz	Re(Z)/Ohm	-Im(Z)/Ohm	|Z|/Ohm	Phase(Z)/deg	time/s	<Ewe>/V	<I>/mA	Cs/µF	Cp/µF	cycle number	I Range	|Ewe|/V	|I|/A	Re(Y)/Ohm-1	Im(Y)/Ohm-1	|Y|/Ohm-1	Phase(Y)/deg
1.00002e+06	-27.401	19.1053	33.404	-145.114	2.30708	0.0501955	0.00289737	0.00833023	0.00272502	1	10	0.000261914	7.84079e-06	-0.0245567	0.0171221	0.0299365	145.114
675752	24.9084	-10.4188	26.9997	22.6989	2.71609	0.0496071	0.00419895	-0.0226055	-0.00336616	1	10	0.00135745	5.02764e-05	0.0341688	-0.0142923	0.0370375	-22.6989
456640	13.8931	-3.58417	14.348	14.4658	3.12509	0.0497255	0.00598538	-0.0972428	-0.00606806	1	10	0.00477652	0.000332904	0.0674864	-0.0174102	0.069696	-14.4658
308574	11.5706	-1.75618	11.7031	8.63049	3.5341	0.0495103	0.00634901	-0.293691	-0.00661346	1	10	0.0100802	0.000861327	0.0844799	-0.0128224	0.0854475	-8.63049
208525	10.7609	-0.838505	10.7936	4.45555	4.07508	0.0494948	0.00754617	-0.910239	-0.00549335	1	10	0.0101101	0.000936679	0.0923678	-0.00719741	0.0926478	-4.45555
140908	10.4375	-0.199059	10.4394	1.09258	4.61609	0.0494935	0.00815407	-5.67417	-0.00206306	1	10	0.0101731	0.000974492	0.0957733	-0.00182654	0.0957907	-1.09258
95214.8	10.3238	0.357915	10.33	-1.98559	5.02509	0.0495091	0.00824172	4.6702	0.00560654	1	10	0.0110003	0.00106488	0.0967473	0.00335413	0.0968054	1.98559
64345.7	10.2944	0.954069	10.3386	-5.29494	5.43409	0.0495023	0.00824731	2.59251	0.0220781	1	10	0.0107598	0.00104074	0.0963126	0.00892608	0.0967253	5.29494
43476.5	10.2975	1.65384	10.4295	-9.12411	5.84308	0.0495113	0.00793963	2.21346	0.0556588	1	10	0.0104754	0.0010044	0.094669	0.0152044	0.0958821	9.12411
29384.8	10.3594	2.5785	10.6755	-13.9771	6.25208	0.0495031	0.00815967	2.10054	0.122543	1	10	0.010336	0.000968192	0.0908988	0.0226251	0.0936722	13.9771
19853.5	10.4596	3.83546	11.1406	-20.1377	6.66109	0.0495041	0.00733732	2.09009	0.247732	1	10	0.010293	0.000923918	0.0842744	0.0309029	0.0897617	20.1377
13418	10.6068	5.65907	12.022	-28.0814	7.07008	0.0495087	0.00769907	2.09599	0.464434	1	10	0.0100398	0.00083512	0.0733886	0.0391553	0.0831807	28.0814
9082.03	10.8232	8.24371	13.6051	-37.2955	7.36733	0.0495249	0.00936055	2.12576	0.780465	1	10	0.0102015	0.000749829	0.0584721	0.0445365	0.0735016	37.2955
6140.96	11.1535	11.9661	16.3581	-47.0129	7.77064	0.0495199	0.00861092	2.16587	1.15896	1	10	0.0100672	0.000615428	0.0416818	0.0447184	0.0611319	47.0129
4141.32	11.6533	17.39	20.9335	-56.1734	8.2367	0.0495537	0.0106025	2.20994	1.52509	1	10	0.00988452	0.000472187	0.0265929	0.039684	0.0477703	56.1734
2797.31	12.3643	25.1669	28.0401	-63.8355	8.70294	0.04956	0.0108933	2.26073	1.82116	1	10	0.00974829	0.000347655	0.0157257	0.0320088	0.0356632	63.8355
1890.6	13.5877	36.5306	38.9758	-69.5971	9.41866	0.0495264	0.000967742	2.30443	2.02436	1	11	0.0103998	0.000266827	0.00894454	0.0240474	0.025657	69.5971
1287.12	15.2673	52.4233	54.6012	-73.7627	9.88518	0.0495302	0.000915912	2.35873	2.17431	1	11	0.00997498	0.000182688	0.00512105	0.0175841	0.0183146	73.7627
863.066	17.7818	76.0861	78.1363	-76.8457	10.3522	0.0495331	0.000792491	2.42366	2.29813	1	11	0.00975749	0.000124878	0.00291253	0.0124623	0.0127981	76.8457
583.692	21.5788	109.614	111.718	-78.8631	10.8192	0.0495293	0.000666088	2.48753	2.39473	1	11	0.00966646	8.65253e-05	0.00172894	0.00878253	0.00895109	78.8631
394.117	27.152	158.33	160.641	-80.269	11.2862	0.0495247	0.000745694	2.55054	2.47768	1	11	0.0096223	5.98994e-05	0.00105218	0.0061355	0.00622506	80.269
266.449	35.452	227.213	229.963	-81.1317	11.7497	0.0495246	0.00070356	2.62888	2.5664	1	11	0.00959345	4.17175e-05	0.000670388	0.00429655	0.00434853	81.1317
180.058	50.0695	328.386	332.181	-81.3308	12.4677	0.0495363	5.26101e-05	2.69168	2.63053	1	12	0.00966501	2.90956e-05	0.000453756	0.00297601	0.0030104	81.3308
121.595	66.5791	474.712	479.358	-82.0163	12.9281	0.0495358	4.13826e-05	2.75723	2.70404	1	12	0.00962218	2.0073e-05	0.000289746	0.0020659	0.00208612	82.0163
82.2368	106.507	684.195	692.435	-81.1519	13.3833	0.0495312	-8.58666e-05	2.82862	2.7617	1	12	0.00959342	1.38546e-05	0.000222136	0.00142699	0.00144418	81.1519
55.5152	159.867	969.929	983.015	-80.6405	13.8449	0.0495275	-0.000481471	2.95576	2.87758	1	12	0.00959103	9.75674e-06	0.000165439	0.00100374	0.00101728	80.6405
37.5601	228.272	1370.93	1389.81	-80.5465	14.3358	0.0495362	8.03981e-05	3.09084	3.00746	1	12	0.00958421	6.89606e-06	0.000118179	0.000709752	0.000719523	80.5465
25.3653	388.105	1951.6	1989.81	-78.7526	15.0449	0.049536	-1.07424e-05	3.21507	3.09276	1	13	0.00960052	4.82484e-06	9.80223e-05	0.000492908	0.00050256	78.7526
17.1327	599.192	2732.16	2797.09	-77.6302	15.4588	0.049527	-2.2564e-05	3.40008	3.24405	1	13	0.00959211	3.42932e-06	7.65868e-05	0.000349215	0.000357515	77.6302
11.5912	900.673	3787.91	3893.51	-76.6248	15.8683	0.0495281	1.28615e-05	3.62486	3.43088	1	13	0.00958379	2.46148e-06	5.94133e-05	0.000249871	0.000256837	76.6248
7.82815	1303.58	5236.69	5396.51	-76.0213	16.4503	0.0495292	2.14858e-06	3.88243	3.65589	1	13	0.00958138	1.77548e-06	4.47625e-05	0.000179817	0.000185305	76.0213
5.29302	1829.15	7202.12	7430.77	-75.7496	17.2867	0.0495338	3.03971e-06	4.17499	3.92201	1	13	0.00958281	1.28961e-06	3.3127e-05	0.000130435	0.000134575	75.7496
3.57551	2406.62	9836.91	10127	-76.2525	19.1103	0.0495397	8.26192e-07	4.52505	4.2695	1	14	0.00958351	9.46331e-07	2.34663e-05	9.59169e-05	9.87457e-05	76.2525
2.41723	3025.39	13693.6	14023.9	-77.5415	20.8876	0.0495369	3.12782e-08	4.80821	4.58443	1	14	0.00957796	6.82976e-07	1.53832e-05	6.9628e-05	7.13071e-05	77.5415
1.63271	3724.54	19258.7	19615.5	-79.0544	23.4984	0.0495368	9.99728e-07	5.06157	4.87909	1	14	0.00957974	4.88375e-07	9.67992e-06	5.00526e-05	5.098e-05	79.0544
1.10206	4506.41	27534.4	27900.8	-80.7051	27.3474	0.049536	7.69232e-07	5.24492	5.10809	1	14	0.00957921	3.43331e-07	5.78892e-06	3.53707e-05	3.58413e-05	80.7051
0.745609	5606.75	39599.1	39994	-81.9412	33.0192	0.0495364	1.04328e-06	5.39043	5.28449	1	14	0.00957919	2.39515e-07	3.50526e-06	2.47568e-05	2.50037e-05	81.9412
0.503902	7182.3	57280	57728.5	-82.853	41.395	0.0495334	5.9831e-08	5.51405	5.4287	1	14	0.00957755	1.65907e-07	2.15518e-06	1.71879e-05	1.73225e-05	82.853
0.340103	9799.96	82840.7	83418.4	-83.2533	53.7885	0.049533	5.79103e-07	5.64893	5.57097	1	14	0.00957776	1.14816e-07	1.40832e-06	1.19048e-05	1.19878e-05	83.2533
0.230213	13141.5	120009	120726	-83.7508	72.0817	0.049532	9.70721e-07	5.76072	5.69246	1	14	0.0095787	7.93423e-08	9.01654e-07	8.23398e-06	8.2832e-06	83.7508
0.155473	18373.6	172923	173897	-83.9349	99.153	0.0495304	8.39272e-07	5.91987	5.85378	1	14	0.00957955	5.50876e-08	6.0759e-07	5.71835e-06	5.75053e-06	83.9349
0.105049	26010.3	250504	251851	-84.0721	139.202	0.049528	7.22237e-07	6.04802	5.98351	1	14	0.00957781	3.80297e-08	4.10069e-07	3.94937e-06	3.9706e-06	84.0721
0.0710227	38092.6	362283	364280	-83.9976	198.423	0.0495283	8.67414e-07	6.1855	6.11786	1	14	0.00957752	2.62916e-08	2.87058e-07	2.73009e-06	2.74514e-06	83.9976
0.0479883	56930.7	525613	528687	-83.8182	286.054	0.0495264	9.16113e-07	6.30984	6.23667	1	14	0.00957746	1.81156e-08	2.0368e-07	1.88048e-06	1.89148e-06	83.8182
0.0324439	85372.4	754488	759303	-83.5443	415.654	0.0495237	9.00853e-07	6.50181	6.41962	1	14	0.00957667	1.26125e-08	1.48077e-07	1.30865e-06	1.317e-06	83.5443
0.0219206	130374	1.08902e+06	1.09679e+06	-83.1732	607.455	0.049524	8.55243e-07	6.66705	6.57285	1	14	0.00957745	8.73224e-09	1.08378e-07	9.05286e-07	9.1175e-07	83.1732
0.0148076	209665	1.56762e+06	1.58158e+06	-82.3821	891.373	0.0495263	7.75805e-07	6.85636	6.73586	1	14	0.00957824	6.05611e-09	8.3819e-08	6.26698e-07	6.32278e-07	82.3821
0.0100006	308064	2.25645e+06	2.27738e+06	-82.2257	1311.75	0.0495251	8.90972e-07	7.05289	6.92384	1	14	0.00957418	4.20403e-09	5.93977e-08	4.35065e-07	4.39101e-07	82.2257