File: Python Codes/Alyssa_Old_Files/Functions.py/EIS Results/EIS_2023_07_08_Temp_In_Out_GB/0708_01_EIS_0.5MTFSI_SymCell_OutsideGB_sanded_RT_C04.mpt
EC-Lab ASCII FILE
Nb header lines : 62

Potentio Electrochemical Impedance Spectroscopy

Run on channel : 4 (SN 35517)
User :
CE vs. WE compliance from -10 V to 10 V
Electrode connection : standard
Ewe ctrl range : min = -5.00 V, max = 5.00 V
Safety Limits :
	Do not start on E overload
Acquisition started on : 07/09/2023 14:49:02
Technique started on : 07/09/2023 14:49:04
Saved on :
	File : 0708_01_EIS_0.5MTFSI_SymCell_OutsideGB_sanded_RT_C04.mpr
	Directory : C:\Users\CESL\Documents\EC-Lab\Data\PhD\Leifer\Results\Zn Ion GPE\2023\0708\
	Host : 10.110.196.171
Device : VSP (SN 1724172417241724)
Address : USB
EC-Lab for windows v11.16 (software)
Internet server v11.16 (firmware)
Command interpretor v11.16 (firmware)
Electrode material : Au/Pd
Initial state :
Electrolyte : NaCl (0.2M)
Comments : Fe(CN)63-/Fe(CN)64- 5.10-3 M
Reference electrode : SCE Saturated Calomel Electrode (0.241 V)
Electrode surface area : 0.001 cm²
Characteristic mass : 0.001 g
Equivalent Weight : 0.000 g/eq.
Density : 0.000 g/cm3
Cycle Definition : Charge/Discharge alternance
Mode                Single sine
E (V)               0.0000
vs.                 Eoc
tE (h:m:s)          0:00:0.0000
record              0
dI                  0.000
unit dI             mA
dt (s)              0.000
fi                  1.000
unit fi             MHz
ff                  10.000
unit ff             mHz
Nd                  6
Points              per decade
spacing             Logarithmic
Va (mV)             10.0
pw                  0.10
Na                  2
corr                1
E range min (V)     -5.000
E range max (V)     5.000
I Range             Auto
Bandwidth           5
nc cycles           0
goto Ns'            0
nr cycles           0
inc. cycle          0

freq/Hz	Re(Z)/Ohm	-Im(Z)/Ohm	|Z|/Ohm	Phase(Z)/deg	time/s	<Ewe>/V	<I>/mA	Cs/µF	Cp/µF	cycle number	I Range	|Ewe|/V	|I|/A	Re(Y)/Ohm-1	Im(Y)/Ohm-1	|Y|/Ohm-1	Phase(Y)/deg
1.00002e+06	396.639	29.4189	397.729	-4.24188	2.48809	0.000329993	-9.44128e-05	0.00540985	2.95981e-05	1	11	0.00146907	3.69365e-06	0.00250739	0.000185974	0.00251427	4.24188
675752	115.303	-1.01667	115.307	0.505187	2.8971	0.000301706	0.000461001	-0.231661	-1.80095e-05	1	11	0.00564001	4.89129e-05	0.00867215	-7.64659e-05	0.00867248	-0.505187
456640	86.5755	0.689214	86.5783	-0.456113	3.3061	0.000492426	0.000529332	0.505698	3.20466e-05	1	11	0.0102073	0.000117896	0.0115499	9.19468e-05	0.0115502	0.456113
308574	78.0366	2.35986	78.0723	-1.73212	3.84708	0.000472157	0.000620251	0.218562	0.000199688	1	11	0.0100686	0.000128965	0.0128028	0.000387162	0.0128086	1.73212
208525	75.1943	4.23763	75.3136	-3.22554	4.25608	0.00049981	0.000618757	0.18011	0.000570214	1	11	0.010827	0.000143759	0.0132568	0.000747096	0.0132778	3.22554
140908	74.3729	6.48211	74.6549	-4.98113	4.66508	0.00051098	0.000636866	0.174248	0.00131366	1	11	0.010795	0.000144598	0.0133444	0.00116305	0.013395	4.98113
95214.8	74.8913	8.85437	75.4129	-6.74275	5.0741	0.000524592	0.000557895	0.188781	0.00260244	1	11	0.0106351	0.000141025	0.0131686	0.00155692	0.0132603	6.74275
64345.7	76.2883	11.7414	77.1865	-8.74961	5.4831	0.000526363	0.000418062	0.21066	0.00487457	1	11	0.0105415	0.000136572	0.0128049	0.00197077	0.0129556	8.74961
43476.5	78.1642	15.3434	79.6559	-11.1058	5.89209	0.000516145	0.0004526	0.238585	0.00885219	1	11	0.0104921	0.000131718	0.0123189	0.00241816	0.012554	11.1058
29384.8	80.7106	19.8464	83.1149	-13.8147	6.3011	0.000532703	0.00056947	0.272908	0.0155605	1	11	0.0103912	0.000125022	0.0116835	0.00287292	0.0120315	13.8147
19853.5	84.1277	25.5869	87.9327	-16.9168	6.71009	0.000527221	0.000650121	0.313303	0.0265277	1	11	0.0102543	0.000116615	0.0108802	0.00330915	0.0113723	16.9168
13418	88.3	33.1385	94.3136	-20.5709	7.11908	0.00053	0.000522983	0.357932	0.0441894	1	11	0.0101588	0.000107713	0.00992687	0.0037255	0.0106029	20.5709
9082.03	93.0756	42.7931	102.442	-24.6914	7.41633	0.000516965	0.000489005	0.409509	0.0714589	1	11	0.0105723	0.000103203	0.00886914	0.00407774	0.00976164	24.6914
6140.96	98.7885	56.1227	113.617	-29.6013	7.81964	0.000522243	0.000353652	0.461791	0.112676	1	11	0.0106585	9.38101e-05	0.00765273	0.00434759	0.00880147	29.6013
4141.32	105.695	74.5249	129.327	-35.1874	8.28567	0.000556422	0.000693993	0.515679	0.17124	1	11	0.0106119	8.20546e-05	0.00631943	0.00445578	0.00773235	35.1874
2797.31	114.28	100.766	152.36	-41.4041	8.75196	0.000558492	0.000668042	0.564632	0.246973	1	11	0.0105359	6.91513e-05	0.00492296	0.0043408	0.00656339	41.4041
1890.6	124.9	137.061	185.434	-47.6579	9.21666	0.000564739	0.000772963	0.614193	0.335547	1	11	0.0104574	5.63939e-05	0.00363232	0.00398597	0.00539275	47.6579
1287.12	139.16	187.014	233.109	-53.3466	9.68318	0.000560301	0.000635184	0.661193	0.425559	1	11	0.0104141	4.46749e-05	0.00256092	0.00344157	0.00428984	53.3466
863.066	159.3	260.591	305.425	-58.5625	10.1502	0.000562184	0.000696232	0.707646	0.515143	1	11	0.0103773	3.39766e-05	0.00170768	0.00279352	0.00327413	58.5625
583.692	189.394	359.249	406.115	-62.202	10.8692	0.00054102	-4.88886e-05	0.758999	0.593926	1	12	0.0105661	2.60176e-05	0.00114833	0.00217819	0.00246235	62.202
394.117	232.434	497.1	548.756	-64.9401	11.3362	0.000540666	-6.92527e-05	0.812365	0.666621	1	12	0.0104471	1.90378e-05	0.000771864	0.00165076	0.0018223	64.9401
266.449	303.511	690.931	754.655	-66.2851	11.7997	0.000537999	2.02288e-05	0.864512	0.724674	1	12	0.0103889	1.37664e-05	0.00053294	0.00121321	0.00132511	66.2851
180.058	398.739	951.43	1031.61	-67.2617	12.2647	0.00053537	6.46522e-05	0.929035	0.790237	1	12	0.0103625	1.0045e-05	0.00037468	0.000894023	0.000969362	67.2617
121.595	569.974	1304.03	1423.15	-66.3905	12.7251	0.000537663	3.93793e-05	1.00373	0.842729	1	12	0.010355	7.27607e-06	0.000281418	0.000643849	0.000702665	66.3905
82.2368	837.23	1727.8	1919.96	-64.1468	13.1803	0.000536974	-4.28603e-05	1.12011	0.907116	1	12	0.0103362	5.38356e-06	0.000227123	0.000468715	0.000520844	64.1468
55.5152	1223.3	2306.62	2610.93	-62.061	13.8929	0.000541934	-6.29507e-05	1.24289	0.970048	1	13	0.0103618	3.96863e-06	0.00017945	0.000338364	0.000383005	62.061
37.5601	1827.76	2957.34	3476.58	-58.2821	14.3838	0.000548982	-6.24943e-05	1.43282	1.03679	1	13	0.0103424	2.97487e-06	0.000151223	0.00024468	0.000287639	58.2821
25.3653	2724.24	3638.24	4545.13	-53.1749	14.8429	0.000541673	-5.91521e-05	1.72461	1.10504	1	13	0.0103423	2.27546e-06	0.000131872	0.000176116	0.000220016	53.1749
17.1327	3923.4	4212.06	5756.26	-47.0321	15.2568	0.000544843	-8.10683e-05	2.20547	1.18089	1	13	0.0103312	1.79477e-06	0.000118408	0.00012712	0.000173724	47.0321
11.5912	5369.35	4614.68	7079.91	-40.6774	15.6663	0.000539547	-6.86776e-05	2.97542	1.26408	1	13	0.0103305	1.45913e-06	0.000107119	9.20632e-05	0.000141245	40.6774
7.82815	6939.04	4585.02	8317.01	-33.455	16.2482	0.000543491	-7.3332e-05	4.43424	1.34762	1	13	0.0103316	1.24223e-06	0.000100315	6.62837e-05	0.000120235	33.455
5.29302	8395.58	4249.99	9410.01	-26.8493	17.5117	0.000544389	-6.81696e-05	7.07503	1.44319	1	14	0.0103351	1.09831e-06	9.48137e-05	4.79963e-05	0.00010627	26.8493
3.57551	9637.04	3659.86	10308.6	-20.7953	18.7264	0.000547949	-7.01226e-05	12.1623	1.53302	1	14	0.0103331	1.00238e-06	9.0687e-05	3.44402e-05	9.70065e-05	20.7953
2.41723	10568.4	2936.92	10968.9	-15.5305	20.5035	0.000545339	-7.28816e-05	22.4186	1.60721	1	14	0.0103318	9.41925e-07	8.78385e-05	2.44101e-05	9.11672e-05	15.5305
1.63271	11219.5	2209.15	11434.9	-11.1392	23.1144	0.00054477	-7.69391e-05	44.1252	1.64692	1	14	0.0103299	9.03365e-07	8.58039e-05	1.6895e-05	8.74514e-05	11.1392
1.10206	11676.1	1568.43	11781	-7.65067	26.9634	0.000546954	-8.17226e-05	92.0766	1.632	1	14	0.0103338	8.77163e-07	8.41271e-05	1.13007e-05	8.48828e-05	7.65067
0.745609	11933	1011.46	11975.8	-4.8449	32.6351	0.000544895	-9.13889e-05	211.038	1.50539	1	14	0.0103315	8.62704e-07	8.32037e-05	7.05248e-06	8.3502e-05	4.8449
0.503902	12098.9	546.373	12111.3	-2.58565	41.011	0.000549413	-0.000102933	578.075	1.17648	1	14	0.0103309	8.53001e-07	8.24837e-05	3.72486e-06	8.25677e-05	2.58565
0.340103	12243.8	171.022	12245	-0.800256	53.4044	0.000548834	-0.000117793	2736.27	0.533756	1	14	0.0103324	8.43802e-07	8.1658e-05	1.1406e-06	8.16659e-05	0.800256
0.230213	12394	-71.6381	12394.2	0.331169	71.6976	0.000541649	-0.000140203	-9650.43	-0.3224	1	14	0.0103316	8.33578e-07	8.06812e-05	-4.66341e-07	8.06826e-05	-0.331169
0.155473	12530	-242.637	12532.3	1.10937	98.7689	0.000536562	-0.000165375	-4218.99	-1.58147	1	14	0.010333	8.2451e-07	7.97787e-05	-1.54488e-06	7.97936e-05	-1.10937
0.105049	12736.6	-373.49	12742.1	1.67967	138.818	0.000537828	-0.000189772	-4056.48	-3.4852	1	14	0.0103318	8.1084e-07	7.84466e-05	-2.30038e-06	7.84803e-05	-1.67967
0.0710227	13034.8	-505.053	13044.6	2.21889	198.039	0.000537996	-0.000214866	-4436.97	-6.65114	1	14	0.010332	7.92047e-07	7.66025e-05	-2.96807e-06	7.66599e-05	-2.21889
0.0479883	13504.4	-619.222	13518.5	2.62537	285.669	0.000539284	-0.000239466	-5355.97	-11.2375	1	14	0.0103318	7.64271e-07	7.38948e-05	-3.38833e-06	7.39724e-05	-2.62537
0.0324439	14095.2	-640.946	14109.8	2.60359	415.269	0.000535886	-0.000259732	-7653.6	-15.7931	1	14	0.0103332	7.32342e-07	7.07996e-05	-3.21944e-06	7.08728e-05	-2.60359
0.0219206	14769.1	-802.116	14790.9	3.1087	607.07	0.000537154	-0.00026047	-9051.72	-26.6205	1	14	0.0103314	6.98495e-07	6.75097e-05	-3.66647e-06	6.76092e-05	-3.1087
0.0148076	15748	-933.711	15775.7	3.39313	890.986	0.000538804	-0.000233388	-11511.2	-40.3247	1	14	0.010332	6.54929e-07	6.32775e-05	-3.75177e-06	6.33887e-05	-3.39313
0.0100006	16830.1	-934.138	16856	3.17689	1311.36	0.000537107	-0.000173436	-17036.5	-52.3233	1	14	0.010333	6.13014e-07	5.92349e-05	-3.28778e-06	5.93261e-05	-3.17689