File: Python Codes/Alyssa_Old_Files/Functions.py/EIS Results/EIS_2023_07_08_Temp_In_Out_GB/0708_01_EIS_0.5MTFSI_Blocking_OutsideGB_Day_2_60C_C02.mpt
EC-Lab ASCII FILE
Nb header lines : 62

Potentio Electrochemical Impedance Spectroscopy

Run on channel : 2 (SN 35514)
User :
CE vs. WE compliance from -10 V to 10 V
Electrode connection : standard
Ewe ctrl range : min = -5.00 V, max = 5.00 V
Safety Limits :
	Do not start on E overload
Acquisition started on : 07/09/2023 15:55:52
Technique started on : 07/09/2023 15:55:53
Saved on :
	File : 0708_01_EIS_0.5MTFSI_Blocking_OutsideGB_Day_2_60C_C02.mpr
	Directory : C:\Users\CESL\Documents\EC-Lab\Data\PhD\Leifer\Results\Zn Ion GPE\2023\0708\
	Host : 10.110.196.171
Device : VSP (SN 1724172417241724)
Address : USB
EC-Lab for windows v11.16 (software)
Internet server v11.16 (firmware)
Command interpretor v11.16 (firmware)
Electrode material : Au/Pd
Initial state :
Electrolyte : NaCl (0.2M)
Comments : Fe(CN)63-/Fe(CN)64- 5.10-3 M
Reference electrode : SCE Saturated Calomel Electrode (0.241 V)
Electrode surface area : 0.001 cm²
Characteristic mass : 0.001 g
Equivalent Weight : 0.000 g/eq.
Density : 0.000 g/cm3
Cycle Definition : Charge/Discharge alternance
Mode                Single sine
E (V)               0.0000
vs.                 Eoc
tE (h:m:s)          0:00:0.0000
record              0
dI                  0.000
unit dI             mA
dt (s)              0.000
fi                  1.000
unit fi             MHz
ff                  10.000
unit ff             mHz
Nd                  6
Points              per decade
spacing             Logarithmic
Va (mV)             10.0
pw                  0.10
Na                  2
corr                1
E range min (V)     -5.000
E range max (V)     5.000
I Range             Auto
Bandwidth           5
nc cycles           0
goto Ns'            0
nr cycles           0
inc. cycle          0

freq/Hz	Re(Z)/Ohm	-Im(Z)/Ohm	|Z|/Ohm	Phase(Z)/deg	time/s	<Ewe>/V	<I>/mA	Cs/µF	Cp/µF	cycle number	I Range	|Ewe|/V	|I|/A	Re(Y)/Ohm-1	Im(Y)/Ohm-1	|Y|/Ohm-1	Phase(Y)/deg
1.00002e+06	0.348662	3.50388	3.52119	-84.3174	1.97409	-0.0207036	-0.0003703	0.0454216	0.0449762	1	9	0.000112458	3.19375e-05	0.0281207	0.282599	0.283995	84.3174
675752	17.3547	-9.62836	19.8467	29.0215	2.67709	-0.0214852	-0.00928486	-0.0244614	-0.00575719	1	10	0.000597426	3.01021e-05	0.0440597	-0.0244443	0.0503863	-29.0215
456640	6.9094	-2.54461	7.36307	20.2179	3.08609	-0.0214831	-0.0074129	-0.136969	-0.0163587	1	10	0.00225016	0.0003056	0.127445	-0.0469358	0.135813	-20.2179
308574	5.46724	-1.19454	5.59622	12.3248	3.4951	-0.0217385	-0.00825936	-0.431779	-0.019673	1	10	0.00608392	0.00108715	0.174574	-0.0381426	0.178692	-12.3248
208525	4.99519	-0.531085	5.02335	6.06885	3.90409	-0.0217915	-0.003751	-1.43713	-0.0160635	1	10	0.0104243	0.00207516	0.197955	-0.0210464	0.19907	-6.06885
140908	4.81367	-0.0811473	4.81436	0.965782	4.44508	-0.0217656	-0.00413508	-13.9191	-0.00395441	1	10	0.0101593	0.0021102	0.207683	-0.00350104	0.207712	-0.965782
95214.8	4.76721	0.322728	4.77812	-3.87287	4.9861	-0.0217376	-0.0040344	5.17939	0.0236286	1	10	0.0101338	0.00212087	0.208809	0.0141359	0.209287	3.87287
64345.7	4.78939	0.737522	4.84585	-8.75425	5.39509	-0.0217365	-0.00307046	3.35371	0.0776849	1	10	0.0107712	0.00222276	0.203958	0.0314077	0.206362	8.75425
43476.5	4.85424	1.21234	5.00334	-14.0227	5.80409	-0.0217268	-0.00337065	3.01954	0.177284	1	10	0.0107736	0.00215328	0.193911	0.0484289	0.199867	14.0227
29384.8	4.95334	1.81572	5.27564	-20.1312	6.21308	-0.0217173	-0.00267333	2.98297	0.353343	1	10	0.0106147	0.00201201	0.17797	0.0652376	0.18955	20.1312
19853.5	5.07926	2.63127	5.72036	-27.386	6.62209	-0.0217403	-0.00350303	3.04661	0.644617	1	10	0.0104977	0.00183515	0.155222	0.0804117	0.174814	27.386
13418	5.222	3.76576	6.43819	-35.7967	7.03109	-0.0217144	-0.00240859	3.14978	1.0776	1	10	0.0102234	0.00158792	0.125982	0.0908501	0.155323	35.7967
9082.03	5.39803	5.39257	7.63011	-44.971	7.32834	-0.0216972	0.00234772	3.24968	1.6232	1	10	0.0103485	0.00135627	0.0927201	0.0926264	0.13106	44.971
6140.96	5.63663	7.77557	9.6037	-54.0611	7.73164	-0.0217156	0.00141547	3.33312	2.18494	1	10	0.00990765	0.00103165	0.0611142	0.0843053	0.104126	54.0611
4141.32	5.9741	11.225	12.7158	-61.9775	8.19767	-0.0216763	0.00565158	3.42369	2.66798	1	10	0.00948608	0.00074601	0.0369478	0.0694228	0.0786426	61.9775
2797.31	6.48305	16.2283	17.4754	-68.2238	8.66396	-0.021673	0.00600583	3.50595	3.02343	1	10	0.00924207	0.000528863	0.0212289	0.05314	0.0572234	68.2238
1890.6	7.21118	23.3955	24.4817	-72.8692	9.12867	-0.0216765	0.00516307	3.59821	3.28602	1	10	0.00910117	0.000371754	0.0120316	0.0390347	0.0408469	72.8692
1287.12	8.20856	33.5711	34.5601	-76.26	9.8472	-0.0216933	-9.13464e-05	3.6833	3.47551	1	11	0.00955857	0.000276578	0.00687255	0.0281071	0.0289351	76.26
863.066	9.79644	48.8837	49.8556	-78.6679	10.3142	-0.0216886	-5.79657e-05	3.77235	3.6267	1	11	0.00924625	0.000185461	0.00394131	0.0196669	0.0200579	78.6679
583.692	12.1114	70.407	71.4411	-80.2395	10.7812	-0.0216981	-0.000120258	3.87276	3.76145	1	11	0.0090906	0.000127246	0.002373	0.0137949	0.0139975	80.2395
394.117	15.5718	101.819	103.003	-81.3048	11.2482	-0.0216915	-2.73831e-05	3.9661	3.87546	1	11	0.00902939	8.76611e-05	0.0014677	0.00959684	0.00970842	81.3048
266.449	21.0022	146.788	148.282	-81.8574	11.7116	-0.0216934	-8.76221e-05	4.06927	3.98763	1	11	0.00899546	6.06644e-05	0.000955182	0.0066759	0.00674389	81.8574
180.058	29.5347	211.065	213.121	-82.0342	12.3987	-0.0216964	-0.000154201	4.18787	4.10744	1	11	0.0098558	4.62451e-05	0.000650249	0.00464689	0.00469217	82.0342
121.595	42.9901	305.459	308.469	-81.9889	13.1081	-0.0216917	-2.95807e-05	4.285	4.20177	1	12	0.00991552	3.21443e-05	0.000451798	0.00321018	0.00324181	81.9889
82.2368	63.753	438.662	443.271	-81.7308	13.5633	-0.0216846	-8.72715e-05	4.41188	4.32062	1	12	0.00987929	2.22873e-05	0.000324461	0.0022325	0.00225596	81.7308
55.5152	101.073	626.241	634.345	-80.8317	14.0249	-0.0216903	-5.37649e-05	4.5779	4.46168	1	12	0.00985353	1.55334e-05	0.00025118	0.00155629	0.00157643	80.8317
37.5601	154.898	892.046	905.394	-80.1492	14.5158	-0.0216846	-5.39328e-05	4.75014	4.61111	1	12	0.00984999	1.08792e-05	0.00018896	0.00108821	0.00110449	80.1492
25.3653	256.358	1273.78	1299.32	-78.6208	14.9749	-0.0216907	-8.08204e-05	4.92593	4.73417	1	12	0.00985007	7.58096e-06	0.00015185	0.000754506	0.000769635	78.6208
17.1327	401.325	1774.15	1818.98	-77.2538	15.6158	-0.0216968	-1.95197e-05	5.23606	4.98118	1	13	0.00985902	5.42009e-06	0.000121295	0.000536212	0.00054976	77.2538
11.5912	634.194	2467.33	2547.54	-75.585	16.0253	-0.0216991	-4.07321e-06	5.56496	5.22008	1	13	0.00984898	3.86608e-06	9.77195e-05	0.000380178	0.000392536	75.585
7.82815	995.759	3391.78	3534.93	-73.6388	16.6063	-0.0216888	-4.67925e-06	5.99422	5.51858	1	13	0.00984547	2.78519e-06	7.96879e-05	0.000271435	0.000282891	73.6388
5.29302	1508.06	4595.12	4836.25	-71.8308	17.4427	-0.0216883	-2.10665e-06	6.54365	5.90738	1	13	0.00984445	2.03555e-06	6.44765e-05	0.000196462	0.000206772	71.8308
3.57551	2343.87	6235.08	6661.07	-69.3979	18.6574	-0.0216839	-3.68339e-05	7.13904	6.25511	1	13	0.00984514	1.47801e-06	5.28256e-05	0.000140525	0.000150126	69.3979
2.41723	3327.37	8259.86	8904.87	-68.0586	21.3106	-0.0216835	4.88119e-06	7.9713	6.85834	1	14	0.00984786	1.1059e-06	4.19611e-05	0.000104164	0.000112298	68.0586
1.63271	4840.4	10942.4	11965.2	-66.1377	23.9204	-0.0216812	4.84178e-06	8.90841	7.45052	1	14	0.00984651	8.22931e-07	3.38098e-05	7.64318e-05	8.35759e-05	66.1377
1.10206	6980.17	14279.6	15894.3	-63.9496	27.7694	-0.0216835	4.67658e-06	10.1135	8.16295	1	14	0.00984368	6.19321e-07	2.76301e-05	5.65239e-05	6.29156e-05	63.9496
0.745609	9993.38	18388.6	20928.6	-61.4778	33.4417	-0.0216851	5.05181e-06	11.6081	8.9614	1	14	0.00984329	4.70327e-07	2.28156e-05	4.19824e-05	4.77815e-05	61.4778
0.503902	13951.4	23064.9	26956.1	-58.8313	41.8176	-0.021684	1.14938e-05	13.6938	10.0256	1	14	0.00984294	3.65148e-07	1.92001e-05	3.17423e-05	3.70974e-05	58.8313
0.340103	19484.6	28223.4	34295.9	-55.38	54.211	-0.0216854	6.77031e-06	16.5806	11.2288	1	14	0.00984311	2.87006e-07	1.65656e-05	2.39952e-05	2.9158e-05	55.38
0.230213	25860.2	33459.1	42287.8	-52.3	72.5043	-0.0216575	7.8728e-06	20.6622	12.9352	1	14	0.00984286	2.32759e-07	1.44611e-05	1.87104e-05	2.36475e-05	52.3
0.155473	33324	38936.1	51249.5	-49.441	99.5756	-0.0216626	8.66936e-06	26.2914	15.1754	1	14	0.00984296	1.9206e-07	1.26876e-05	1.48243e-05	1.95124e-05	49.441
0.105049	41230.1	44555.4	60705	-47.2199	139.625	-0.0216716	1.00228e-05	34.0038	18.318	1	14	0.00984267	1.62139e-07	1.11883e-05	1.20907e-05	1.64731e-05	47.2199
0.0710227	48792.7	50138.4	69961.4	-45.7793	198.846	-0.0216698	1.03478e-05	44.6943	22.955	1	14	0.00984194	1.40677e-07	9.9687e-06	1.02436e-05	1.42936e-05	45.7793
0.0479883	57187.6	58513.9	81818.7	-45.6568	286.477	-0.021672	1.03657e-05	56.6795	28.9894	1	14	0.00984291	1.20302e-07	8.54274e-06	8.74086e-06	1.22222e-05	45.6568
0.0324439	66450.3	69484.7	96144.5	-46.2788	416.077	-0.0216711	8.75112e-06	70.5988	36.8746	1	14	0.00984316	1.02379e-07	7.18866e-06	7.51692e-06	1.0401e-05	46.2788
0.0219206	78054.3	85798.6	115991	-47.706	607.878	-0.0216731	7.5409e-06	84.6229	46.3021	1	14	0.00984239	8.48549e-08	5.80162e-06	6.37724e-06	8.62137e-06	47.706
0.0148076	93492.4	108459	143193	-49.2384	891.797	-0.0216762	5.88157e-06	99.0992	56.8536	1	14	0.00984365	6.87441e-08	4.55968e-06	5.2896e-06	6.9836e-06	49.2384
0.0100006	114416	139777	180634	-50.6975	1312.17	-0.0216774	3.65367e-06	113.856	68.1755	1	14	0.00984296	5.44911e-08	3.50661e-06	4.28386e-06	5.53605e-06	50.6975