File: Python Codes/Alyssa_Old_Files/Functions.py/EIS Results/EIS_2023_07_08_Temp_In_Out_GB/0708_01_EIS_0.5MTFSI_Blocking_OutsideGB_Day_2_60C_overnight_C02.mpt
EC-Lab ASCII FILE
Nb header lines : 62

Potentio Electrochemical Impedance Spectroscopy

Run on channel : 2 (SN 35514)
User :
CE vs. WE compliance from -10 V to 10 V
Electrode connection : standard
Ewe ctrl range : min = -5.00 V, max = 5.00 V
Safety Limits :
	Do not start on E overload
Acquisition started on : 07/10/2023 07:23:13
Technique started on : 07/10/2023 07:23:14
Saved on :
	File : 0708_01_EIS_0.5MTFSI_Blocking_OutsideGB_Day_2_60C_overnight_C02.mpr
	Directory : C:\Users\CESL\Documents\EC-Lab\Data\PhD\Leifer\Results\Zn Ion GPE\2023\0708\
	Host : 10.110.196.171
Device : VSP (SN 1724172417241724)
Address : USB
EC-Lab for windows v11.16 (software)
Internet server v11.16 (firmware)
Command interpretor v11.16 (firmware)
Electrode material : Au/Pd
Initial state :
Electrolyte : NaCl (0.2M)
Comments : Fe(CN)63-/Fe(CN)64- 5.10-3 M
Reference electrode : SCE Saturated Calomel Electrode (0.241 V)
Electrode surface area : 0.001 cm²
Characteristic mass : 0.001 g
Equivalent Weight : 0.000 g/eq.
Density : 0.000 g/cm3
Cycle Definition : Charge/Discharge alternance
Mode                Single sine
E (V)               0.0000
vs.                 Eoc
tE (h:m:s)          0:00:0.0000
record              0
dI                  0.000
unit dI             mA
dt (s)              0.000
fi                  1.000
unit fi             MHz
ff                  10.000
unit ff             mHz
Nd                  6
Points              per decade
spacing             Logarithmic
Va (mV)             10.0
pw                  0.10
Na                  2
corr                1
E range min (V)     -5.000
E range max (V)     5.000
I Range             Auto
Bandwidth           5
nc cycles           0
goto Ns'            0
nr cycles           0
inc. cycle          0

freq/Hz	Re(Z)/Ohm	-Im(Z)/Ohm	|Z|/Ohm	Phase(Z)/deg	time/s	<Ewe>/V	<I>/mA	Cs/µF	Cp/µF	cycle number	I Range	|Ewe|/V	|I|/A	Re(Y)/Ohm-1	Im(Y)/Ohm-1	|Y|/Ohm-1	Phase(Y)/deg
1.00002e+06	0.445687	3.37317	3.40248	-82.4733	1.9751	-0.0194837	-0.00518502	0.0471817	0.0463722	1	9	0.000116756	3.4315e-05	0.038498	0.291371	0.293903	82.4733
675752	20.4088	-10.3036	22.8623	26.7874	2.67809	-0.0202636	-0.00584861	-0.0228583	-0.00464282	1	10	0.000682966	2.9873e-05	0.0390462	-0.0197128	0.0437401	-26.7874
456640	8.01905	-2.69504	8.45982	18.5765	3.08709	-0.0203001	-0.00690949	-0.129324	-0.0131247	1	10	0.00257673	0.000304585	0.112047	-0.0376568	0.118206	-18.5765
308574	6.32411	-1.30148	6.45664	11.6289	3.49609	-0.0205247	-0.00440919	-0.3963	-0.0161022	1	10	0.00698883	0.00108243	0.1517	-0.0312194	0.154879	-11.6289
208525	5.76663	-0.656447	5.80388	6.49433	3.9051	-0.0206004	-0.0046702	-1.16268	-0.0148739	1	10	0.0106096	0.00182801	0.171193	-0.0194878	0.172299	-6.49433
140908	5.55058	-0.229037	5.55531	2.36289	4.44608	-0.0205514	-0.00190889	-4.93149	-0.00838251	1	10	0.0101442	0.00182603	0.179855	-0.00742147	0.180008	-2.36289
95214.8	5.48267	0.115143	5.48388	-1.20311	4.98708	-0.0205302	-0.00102512	14.517	0.00639998	1	10	0.0101062	0.0018429	0.182312	0.0038288	0.182353	1.20311
64345.7	5.48242	0.461066	5.50177	-4.8072	5.39608	-0.0205321	-0.00201703	5.36461	0.0376754	1	10	0.0107357	0.00195131	0.18112	0.015232	0.18176	4.8072
43476.5	5.52391	0.833702	5.58647	-8.58264	5.80508	-0.0205231	-0.000117116	4.39091	0.0977913	1	10	0.0106406	0.0019047	0.176999	0.0267138	0.179004	8.58264
29384.8	5.59495	1.28733	5.74114	-12.9575	6.21409	-0.0205235	-0.00126564	4.20734	0.211539	1	10	0.0104703	0.00182373	0.169746	0.0390565	0.174181	12.9575
19853.5	5.70073	1.8776	6.00197	-18.2299	6.6231	-0.0205159	-0.00101767	4.26954	0.417828	1	10	0.0104179	0.00173574	0.15825	0.0521212	0.166612	18.2299
13418	5.80784	2.69583	6.40301	-24.8994	7.03208	-0.0205155	-0.00105683	4.39988	0.779934	1	10	0.0102602	0.0016024	0.14166	0.0657544	0.156177	24.8994
9082.03	5.93881	3.85233	7.07884	-32.9703	7.32934	-0.0204966	0.00263858	4.54897	1.34722	1	10	0.0108423	0.00153165	0.118516	0.0768777	0.141266	32.9703
6140.96	6.10302	5.53865	8.24158	-42.2246	7.73265	-0.0205167	0.000947486	4.67929	2.11333	1	10	0.0107651	0.00130619	0.0898513	0.0815424	0.121336	42.2246
4141.32	6.32651	8.00749	10.2051	-51.6886	8.19869	-0.0204773	0.00586787	4.79937	2.95488	1	10	0.0104698	0.00102594	0.0607474	0.0768882	0.09799	51.6886
2797.31	6.66733	11.5758	13.3586	-60.0593	8.66494	-0.0204716	0.00609906	4.91505	3.69069	1	10	0.010204	0.000763855	0.037362	0.0648677	0.0748581	60.0593
1890.6	7.11743	16.7295	18.1806	-66.953	9.12966	-0.0204756	0.00644026	5.03196	4.26076	1	10	0.0100297	0.000551669	0.0215332	0.0506136	0.0550038	66.953
1287.12	7.77659	24.0047	25.2329	-72.0497	9.59618	-0.0204743	0.00597972	5.15117	4.6619	1	10	0.00993736	0.000393825	0.0122139	0.0377017	0.0396307	72.0497
863.066	8.77246	35.0379	36.1194	-75.9438	10.3152	-0.0204946	-4.28575e-05	5.26305	4.9526	1	11	0.0102475	0.000283712	0.00672419	0.026857	0.0276859	75.9438
583.692	10.2269	50.7563	51.7764	-78.608	10.7822	-0.0204966	-6.3374e-05	5.37212	5.16253	1	11	0.0100392	0.000193896	0.00381487	0.0189333	0.0193138	78.608
394.117	12.3688	73.4807	74.5144	-80.4451	11.2492	-0.0204968	-2.6823e-05	5.49568	5.34426	1	11	0.00993325	0.000133306	0.00222766	0.013234	0.0134202	80.4451
266.449	15.6635	106.401	107.548	-81.6256	11.7126	-0.0204959	-5.08814e-05	5.61381	5.49473	1	11	0.00988299	9.18936e-05	0.0013542	0.00919901	0.00929816	81.6256
180.058	20.7301	153.827	155.218	-82.3249	12.1777	-0.0205011	-3.91332e-05	5.74612	5.64363	1	11	0.00985771	6.35088e-05	0.000860435	0.00638484	0.00644255	82.3249
121.595	29.2185	222.335	224.247	-82.5133	12.6381	-0.020504	-0.000179565	5.88701	5.78707	1	11	0.00984941	4.39222e-05	0.000581038	0.00442135	0.00445937	82.5133
82.2368	42.7785	321.727	324.559	-82.4261	13.3393	-0.0204914	-8.28336e-05	6.01543	5.91092	1	12	0.00988388	3.04533e-05	0.000406107	0.00305423	0.00308111	82.4261
55.5152	65.3767	462.986	467.579	-81.9626	13.8019	-0.0204951	-7.49279e-05	6.19214	6.07109	1	12	0.00985827	2.10837e-05	0.000299029	0.00211767	0.00213868	81.9626
37.5601	101.099	662.526	670.195	-81.3238	14.2938	-0.0204836	4.31193e-05	6.39574	6.2502	1	12	0.00984789	1.46941e-05	0.000225084	0.00147503	0.0014921	81.3238
25.3653	160.376	948.261	961.727	-80.4006	14.7529	-0.020495	-0.000121375	6.61688	6.43287	1	12	0.00984851	1.02404e-05	0.000173395	0.00102524	0.0010398	80.4006
17.1327	235.922	1332.44	1353.17	-79.9593	15.1659	-0.0204974	-0.000307704	6.97182	6.7599	1	12	0.0098519	7.28061e-06	0.000128844	0.000727688	0.000739006	79.9593
11.5912	419.696	1888.68	1934.75	-77.4715	15.8013	-0.0205037	-9.79571e-06	7.26995	6.92786	1	13	0.00985559	5.09399e-06	0.00011212	0.000504555	0.000516863	77.4715
7.82815	659.088	2632.6	2713.85	-75.9446	16.3833	-0.0204907	-6.79836e-06	7.72281	7.26731	1	13	0.00984943	3.62932e-06	8.94892e-05	0.000357448	0.00036848	75.9446
5.29302	1028.76	3606.87	3750.71	-74.0806	17.2197	-0.0204879	-4.83781e-07	8.33655	7.70938	1	13	0.00984181	2.62398e-06	7.31288e-05	0.000256391	0.000266616	74.0806
3.57551	1557.77	4913.51	5154.54	-72.4094	18.4353	-0.0204831	-2.86456e-06	9.05919	8.23179	1	13	0.0098467	1.9103e-06	5.86304e-05	0.000184932	0.000194004	72.4094
2.41723	2294.67	6644.16	7029.25	-70.9468	21.0886	-0.0204826	2.16514e-06	9.90972	8.85367	1	14	0.00984806	1.40101e-06	4.64411e-05	0.000134469	0.000142263	70.9468
1.63271	3303.55	8909.82	9502.54	-69.6564	23.6995	-0.0204842	-5.08688e-07	10.9407	9.61837	1	14	0.00984617	1.03616e-06	3.65849e-05	9.8671e-05	0.000105235	69.6564
1.10206	4667.53	11956	12834.8	-68.6747	27.5484	-0.0204852	-4.90901e-07	12.079	10.4815	1	14	0.00984312	7.6691e-07	2.83342e-05	7.25787e-05	7.79133e-05	68.6747
0.745609	6629.23	15969.5	17290.8	-67.4557	33.2201	-0.0204873	3.36751e-07	13.3665	11.4017	1	14	0.00984237	5.69227e-07	2.21735e-05	5.34149e-05	5.78344e-05	67.4557
0.503902	9416.87	21350.6	23335.1	-66.1997	41.5959	-0.0204887	1.88858e-06	14.7932	12.3841	1	14	0.0098406	4.21708e-07	1.72937e-05	3.92095e-05	4.28539e-05	66.1997
0.340103	13380.9	28056.2	31083.7	-64.502	53.9893	-0.0204861	4.01746e-07	16.6795	13.5885	1	14	0.0098406	3.16584e-07	1.38491e-05	2.90377e-05	3.21712e-05	64.502
0.230213	18929.4	36653.5	41252.9	-62.6863	72.2816	-0.0204864	5.01341e-07	18.8615	14.8901	1	14	0.00984043	2.38539e-07	1.11232e-05	2.15381e-05	2.42407e-05	62.6863
0.155473	26700.3	47096.9	54139	-60.4501	99.3539	-0.0204881	4.2361e-07	21.7357	16.449	1	14	0.00984168	1.81786e-07	9.10955e-06	1.60684e-05	1.8471e-05	60.4501
0.105049	37289.8	59639.3	70337.6	-57.9841	139.403	-0.0204871	5.96129e-07	25.4036	18.2636	1	14	0.00984127	1.39915e-07	7.53728e-06	1.20547e-05	1.42171e-05	57.9841
0.0710227	50766.8	74252.1	89948	-55.6393	198.624	-0.0204967	7.84825e-07	30.1796	20.5659	1	14	0.00984265	1.09426e-07	6.27475e-06	9.17753e-06	1.11175e-05	55.6393
0.0479883	68064.7	90783.1	113465	-53.1393	286.255	-0.020498	7.65867e-07	36.5325	23.3864	1	14	0.00984083	8.67299e-08	5.28683e-06	7.05146e-06	8.81327e-06	53.1393
0.0324439	88759.3	110552	141774	-51.2399	415.856	-0.0204995	8.20829e-07	44.3732	26.981	1	14	0.0098428	6.94259e-08	4.4159e-06	5.50011e-06	7.05347e-06	51.2399
0.0219206	113090	132730	174375	-49.5682	607.657	-0.0204979	8.17586e-07	54.7013	31.6935	1	14	0.00984085	5.6435e-08	3.71924e-06	4.36518e-06	5.73477e-06	49.5682
0.0148076	141571	159433	213217	-48.3961	891.575	-0.0204942	9.49883e-07	67.4148	37.694	1	14	0.00984169	4.61582e-08	3.11409e-06	3.50701e-06	4.69007e-06	48.3961
0.0100006	174222	193678	260508	-48.0273	1311.95	-0.0204952	1.06972e-06	82.1696	45.4183	1	14	0.00984274	3.77828e-08	2.5672e-06	2.8539e-06	3.83865e-06	48.0273