File: Python Codes/Alyssa_Old_Files/Functions.py/EIS Results/EIS_2023_07_08_Temp_In_Out_GB/0708_01_EIS_0.5MTFSI_Blocking_InsideGB_day_2_40C_C01.mpt
EC-Lab ASCII FILE
Nb header lines : 62

Potentio Electrochemical Impedance Spectroscopy

Run on channel : 1 (SN 35512)
User :
CE vs. WE compliance from -10 V to 10 V
Electrode connection : standard
Ewe ctrl range : min = -5.00 V, max = 5.00 V
Safety Limits :
	Do not start on E overload
Acquisition started on : 07/09/2023 15:25:37
Technique started on : 07/09/2023 15:25:39
Saved on :
	File : 0708_01_EIS_0.5MTFSI_Blocking_InsideGB_day_2_40C_C01.mpr
	Directory : C:\Users\CESL\Documents\EC-Lab\Data\PhD\Leifer\Results\Zn Ion GPE\2023\0708\
	Host : 10.110.196.171
Device : VSP (SN 1724172417241724)
Address : USB
EC-Lab for windows v11.16 (software)
Internet server v11.16 (firmware)
Command interpretor v11.16 (firmware)
Electrode material : Au/Pd
Initial state :
Electrolyte : NaCl (0.2M)
Comments : Fe(CN)63-/Fe(CN)64- 5.10-3 M
Reference electrode : SCE Saturated Calomel Electrode (0.241 V)
Electrode surface area : 0.001 cm²
Characteristic mass : 0.001 g
Equivalent Weight : 0.000 g/eq.
Density : 0.000 g/cm3
Cycle Definition : Charge/Discharge alternance
Mode                Single sine
E (V)               0.0000
vs.                 Eoc
tE (h:m:s)          0:00:0.0000
record              0
dI                  0.000
unit dI             mA
dt (s)              0.000
fi                  1.000
unit fi             MHz
ff                  10.000
unit ff             mHz
Nd                  6
Points              per decade
spacing             Logarithmic
Va (mV)             10.0
pw                  0.10
Na                  2
corr                1
E range min (V)     -5.000
E range max (V)     5.000
I Range             Auto
Bandwidth           5
nc cycles           0
goto Ns'            0
nr cycles           0
inc. cycle          0

freq/Hz	Re(Z)/Ohm	-Im(Z)/Ohm	|Z|/Ohm	Phase(Z)/deg	time/s	<Ewe>/V	<I>/mA	Cs/µF	Cp/µF	cycle number	I Range	|Ewe|/V	|I|/A	Re(Y)/Ohm-1	Im(Y)/Ohm-1	|Y|/Ohm-1	Phase(Y)/deg
1.00002e+06	-18.0091	18.7846	26.0229	-133.792	2.30708	0.050196	0.00360969	0.00847245	0.00441473	1	10	0.000194335	7.46786e-06	-0.0265939	0.0277391	0.0384277	133.792
675752	17.837	-10.0846	20.4904	29.4827	2.71608	0.0496146	0.00449358	-0.0233547	-0.00565703	1	10	0.00103118	5.03249e-05	0.0424834	-0.024019	0.0488033	-29.4827
456640	10.0259	-3.55967	10.639	19.5473	3.1251	0.0497096	0.00399944	-0.097912	-0.010961	1	10	0.00359739	0.000338131	0.0885761	-0.0314488	0.0939934	-19.5473
308574	8.40023	-1.7901	8.58885	12.0299	3.4021	0.0495124	0.00561618	-0.288126	-0.0125161	1	10	0.0094348	0.00109849	0.113873	-0.0242665	0.11643	-12.0299
208525	7.81207	-0.884942	7.86203	6.46285	3.9431	0.0494758	0.00577841	-0.862475	-0.0109271	1	10	0.0100997	0.00128462	0.126385	-0.0143168	0.127194	-6.46285
140908	7.59321	-0.256986	7.59755	1.93839	4.48309	0.0494995	0.00702964	-4.39517	-0.00502858	1	10	0.0101556	0.00133669	0.131546	-0.00445206	0.131621	-1.93839
95214.8	7.50931	0.284374	7.51469	-2.16873	5.0231	0.0494953	0.00765993	5.87794	0.00841751	1	10	0.0100991	0.00134392	0.132977	0.00503579	0.133073	2.16873
64345.7	7.48734	0.860425	7.53661	-6.55553	5.43108	0.0495033	0.00874893	2.87467	0.0374681	1	10	0.0106874	0.00141807	0.131818	0.0151482	0.132686	6.55553
43476.5	7.50686	1.52314	7.65982	-11.4696	5.84008	0.0495157	0.00812238	2.40339	0.0950318	1	10	0.0106258	0.00138721	0.127944	0.02596	0.130551	11.4696
29384.8	7.56859	2.40488	7.94147	-17.6274	6.24909	0.0495085	0.00782216	2.25219	0.206533	1	10	0.0104993	0.00132209	0.120009	0.0381321	0.125921	17.6274
19853.5	7.66777	3.61212	8.47597	-25.2241	6.6581	0.0495134	0.00811305	2.21932	0.403056	1	10	0.010259	0.00121037	0.106731	0.0502786	0.117981	25.2241
13418	7.81	5.29351	9.4349	-34.1289	7.06608	0.0495165	0.00852329	2.24073	0.705347	1	10	0.0102078	0.00108192	0.0877357	0.0594661	0.105989	34.1289
9082.03	8.01008	7.71862	11.1238	-43.9384	7.36334	0.0495201	0.00930834	2.27038	1.09313	1	10	0.0102631	0.00092263	0.064734	0.0623785	0.0898975	43.9384
6140.96	8.35065	11.2071	13.9761	-53.3095	7.76664	0.0495274	0.00956194	2.31254	1.48697	1	10	0.0099795	0.000714038	0.0427509	0.0573745	0.0715505	53.3095
4141.32	8.85354	16.225	18.4834	-61.3799	8.23269	0.0495557	0.013627	2.36863	1.82517	1	10	0.00969311	0.000524424	0.0259152	0.0474922	0.0541027	61.3799
2797.31	9.64422	23.452	25.3576	-67.646	8.69894	0.0495584	0.0130676	2.42604	2.07512	1	10	0.00951434	0.000375207	0.0149986	0.0364723	0.0394359	67.646
1890.6	10.8288	33.9672	35.6516	-72.3176	9.41568	0.0495354	0.000850662	2.47833	2.24969	1	11	0.0102273	0.00028687	0.00851969	0.0267241	0.0280493	72.3176
1287.12	12.4417	48.7	50.2641	-75.6688	9.88219	0.0495347	0.000917963	2.53906	2.3835	1	11	0.00975178	0.000194011	0.00492452	0.0192758	0.0198949	75.6688
863.066	14.9973	70.6189	72.1938	-78.0103	10.3492	0.0495375	0.000758374	2.61129	2.4986	1	11	0.00952388	0.000131921	0.00287748	0.0135494	0.0138516	78.0103
583.692	18.7331	101.6	103.313	-79.5531	10.8162	0.0495351	0.000801439	2.68375	2.59551	1	11	0.00942181	9.11971e-05	0.0017551	0.00951892	0.00967937	79.5531
394.117	24.2909	146.28	148.283	-80.5716	11.2832	0.0495391	0.000781303	2.76065	2.68656	1	11	0.00937783	6.32428e-05	0.00110474	0.00665276	0.00674387	80.5716
266.449	32.7348	209.438	211.981	-81.1166	11.7466	0.0495356	0.000497923	2.852	2.78399	1	11	0.00934669	4.40921e-05	0.000728478	0.00466082	0.00471741	81.1166
180.058	46.6283	302.472	306.045	-81.2364	12.4647	0.0495452	-1.83904e-05	2.92229	2.85445	1	12	0.0094238	3.07922e-05	0.000497827	0.00322934	0.00326749	81.2364
121.595	70.6795	433.99	439.708	-80.75	12.9251	0.0495475	0.000191534	3.01595	2.93802	1	12	0.00937166	2.13134e-05	0.000365565	0.00224466	0.00227424	80.75
82.2368	106.405	616.558	625.672	-80.2084	13.3803	0.0495421	-1.77754e-05	3.13892	3.04813	1	12	0.00934873	1.49419e-05	0.000271811	0.001575	0.00159828	80.2084
55.5152	165.245	883.577	898.896	-79.407	13.8419	0.0495391	3.14046e-05	3.24462	3.13497	1	12	0.00933694	1.03871e-05	0.000204507	0.00109352	0.00111248	79.407
37.5601	247.188	1224.74	1249.44	-78.5894	14.3337	0.0495475	7.81221e-06	3.45978	3.32436	1	12	0.00933008	7.46741e-06	0.000158343	0.000784539	0.000800359	78.5894
25.3653	378.006	1741.6	1782.15	-77.7541	15.0429	0.0495386	-7.68586e-06	3.60274	3.44066	1	13	0.00935299	5.24816e-06	0.000119018	0.000548353	0.000561121	77.7541
17.1327	565.014	2419.55	2484.64	-76.8558	15.4568	0.049537	-3.56849e-07	3.83938	3.64084	1	13	0.00933321	3.75636e-06	9.15231e-05	0.000391928	0.000402472	76.8558
11.5912	832.813	3340.84	3443.07	-76.0024	15.8663	0.0495331	1.32339e-06	4.10994	3.86948	1	13	0.00933045	2.70992e-06	7.02513e-05	0.000281814	0.000290438	76.0024
7.82815	1176.55	4582.88	4731.5	-75.6016	16.4473	0.0495382	8.08735e-06	4.43632	4.162	1	13	0.00933066	1.97203e-06	5.25548e-05	0.000204711	0.00021135	75.6016
5.29302	1556.51	6321.35	6510.16	-76.1672	17.2837	0.049543	4.26682e-06	4.75671	4.4848	1	13	0.00932808	1.43285e-06	3.67255e-05	0.000149151	0.000153606	76.1672
3.57551	1967.27	8801.47	9018.64	-77.4006	19.1064	0.0495416	-1.51109e-06	5.05739	4.81675	1	14	0.0093326	1.03481e-06	2.41869e-05	0.000108211	0.000110881	77.4006
2.41723	2409.1	12352	12584.7	-78.9637	20.8836	0.0495468	1.76404e-06	5.33046	5.13512	1	14	0.00933053	7.41417e-07	1.52114e-05	7.79919e-05	7.94614e-05	78.9637
1.63271	2904.14	17646	17883.4	-80.6542	23.4944	0.049546	1.66814e-06	5.52414	5.37846	1	14	0.00932822	5.21612e-07	9.08064e-06	5.51755e-05	5.59177e-05	80.6542
1.10206	3712.11	25435.9	25705.3	-81.6969	27.3434	0.0495393	1.28143e-06	5.67764	5.55924	1	14	0.00932688	3.62838e-07	5.6179e-06	3.84947e-05	3.89024e-05	81.6969
0.745609	4752.93	36659.3	36966.1	-82.6127	33.0152	0.0495423	1.07236e-06	5.8227	5.72644	1	14	0.00932755	2.52327e-07	3.47819e-06	2.68273e-05	2.70518e-05	82.6127
0.503902	6654.88	52955	53371.5	-82.8372	41.391	0.0495404	1.44484e-06	5.9644	5.87167	1	14	0.00932824	1.74779e-07	2.33626e-06	1.85904e-05	1.87366e-05	82.8372
0.340103	9288.56	76732.2	77292.3	-83.0978	53.7844	0.0495411	9.41187e-07	6.09863	6.01056	1	14	0.00932767	1.2068e-07	1.5548e-06	1.28441e-05	1.29379e-05	83.0978
0.230213	13671.9	110245	111089	-82.9306	72.0777	0.0495319	7.12461e-07	6.27093	6.17595	1	14	0.00932696	8.3959e-08	1.10786e-06	8.93332e-06	9.00175e-06	82.9306
0.155473	20558.3	159226	160547	-82.643	99.149	0.0495381	6.65242e-07	6.42915	6.32373	1	14	0.00932714	5.80959e-08	7.97594e-07	6.17742e-06	6.2287e-06	82.643
0.105049	30834.7	228215	230289	-82.3052	139.198	0.0495335	6.78054e-07	6.63871	6.51969	1	14	0.00932817	4.05064e-08	5.81427e-07	4.30328e-06	4.34238e-06	82.3052
0.0710227	46713.3	325615	328948	-81.8359	198.419	0.0495302	6.91876e-07	6.88207	6.74328	1	14	0.0093256	2.83497e-08	4.31703e-07	3.00918e-06	3.03999e-06	81.8359
0.0479883	74274.4	468476	474328	-80.991	286.05	0.0495367	7.46998e-07	7.07941	6.90582	1	14	0.00932763	1.96649e-08	3.30128e-07	2.08224e-06	2.10825e-06	80.991
0.0324439	116714	669998	680088	-80.1182	415.65	0.0495312	5.87244e-07	7.32172	7.10608	1	14	0.0093268	1.37141e-08	2.52344e-07	1.44858e-06	1.4704e-06	80.1182
0.0219206	189161	947051	965758	-78.7046	607.451	0.0495317	7.04923e-07	7.66645	7.37233	1	14	0.00932665	9.65734e-09	2.02813e-07	1.0154e-06	1.03546e-06	78.7046
0.0148076	328048	1.33067e+06	1.37051e+06	-76.1512	891.369	0.0495295	6.28853e-07	8.07725	7.61447	1	14	0.00932736	6.80574e-09	1.74651e-07	7.08443e-07	7.29653e-07	76.1512
0.0100006	540224	1.84901e+06	1.92631e+06	-73.7133	1311.74	0.0495264	6.11261e-07	8.60703	7.93009	1	14	0.00932698	4.84188e-09	1.45586e-07	4.98294e-07	5.19126e-07	73.7133