File: Python Codes/Alyssa_Old_Files/Functions.py/EIS Results/EIS_2023_07_08_Temp_In_Out_GB/0708_01_EIS_0.5MTFSI_Blocking_OutsideGB_24hr_40C_C03.mpt
EC-Lab ASCII FILE
Nb header lines : 62

Potentio Electrochemical Impedance Spectroscopy

Run on channel : 3 (SN 35515)
User :
CE vs. WE compliance from -10 V to 10 V
Electrode connection : standard
Ewe ctrl range : min = -5.00 V, max = 5.00 V
Safety Limits :
	Do not start on E overload
Acquisition started on : 07/09/2023 15:26:00
Technique started on : 07/09/2023 15:26:02
Saved on :
	File : 0708_01_EIS_0.5MTFSI_Blocking_OutsideGB_24hr_40C_C03.mpr
	Directory : C:\Users\CESL\Documents\EC-Lab\Data\PhD\Leifer\Results\Zn Ion GPE\2023\0708\
	Host : 10.110.196.171
Device : VSP (SN 1724172417241724)
Address : USB
EC-Lab for windows v11.16 (software)
Internet server v11.16 (firmware)
Command interpretor v11.16 (firmware)
Electrode material : Au/Pd
Initial state :
Electrolyte : NaCl (0.2M)
Comments : Fe(CN)63-/Fe(CN)64- 5.10-3 M
Reference electrode : SCE Saturated Calomel Electrode (0.241 V)
Electrode surface area : 0.001 cm²
Characteristic mass : 0.001 g
Equivalent Weight : 0.000 g/eq.
Density : 0.000 g/cm3
Cycle Definition : Charge/Discharge alternance
Mode                Single sine
E (V)               0.0000
vs.                 Eoc
tE (h:m:s)          0:00:0.0000
record              0
dI                  0.000
unit dI             mA
dt (s)              0.000
fi                  1.000
unit fi             MHz
ff                  10.000
unit ff             mHz
Nd                  6
Points              per decade
spacing             Logarithmic
Va (mV)             10.0
pw                  0.10
Na                  2
corr                1
E range min (V)     -5.000
E range max (V)     5.000
I Range             Auto
Bandwidth           5
nc cycles           0
goto Ns'            0
nr cycles           0
inc. cycle          0

freq/Hz	Re(Z)/Ohm	-Im(Z)/Ohm	|Z|/Ohm	Phase(Z)/deg	time/s	<Ewe>/V	<I>/mA	Cs/µF	Cp/µF	cycle number	I Range	|Ewe|/V	|I|/A	Re(Y)/Ohm-1	Im(Y)/Ohm-1	|Y|/Ohm-1	Phase(Y)/deg
1.00002e+06	-89.4249	9.22495	89.8995	-174.11	2.48809	-0.0229393	-0.00240191	0.0172523	0.000181661	1	11	0.000411231	4.57434e-06	-0.0110648	0.00114143	0.0111235	174.11
675752	57.1813	-12.351	58.5	12.1885	2.8971	-0.0235777	-0.000838728	-0.0190691	-0.00085001	1	11	0.00196672	3.36191e-05	0.0167087	-0.00360904	0.017094	-12.1885
456640	32.7163	-5.21257	33.1289	9.05264	3.30609	-0.0235679	-0.000951726	-0.0668643	-0.00165532	1	11	0.00594517	0.000179456	0.0298091	-0.00474938	0.0301851	-9.05264
308574	27.1532	-2.36569	27.2561	4.97925	4.00908	-0.0238172	0.0035545	-0.218023	-0.00164245	1	10	0.00912734	0.000334873	0.0365506	-0.00318442	0.036689	-4.97925
208525	25.1704	-1.32697	25.2054	3.01781	4.55009	-0.0238371	0.00387339	-0.575175	-0.00159418	1	10	0.0101469	0.000402571	0.0396191	-0.0020887	0.0396741	-3.01781
140908	24.369	-0.660617	24.3779	1.55285	5.09109	-0.0238258	0.00323374	-1.70976	-0.00125557	1	10	0.0100963	0.000414157	0.0410057	-0.00111162	0.0410207	-1.55285
95214.8	24.0265	-0.231074	24.0276	0.551022	5.50008	-0.0238039	0.00496059	-7.23378	-0.000669029	1	10	0.0106706	0.000444099	0.0416169	-0.000400248	0.0416188	-0.551022
64345.7	23.9096	0.129725	23.9099	-0.310865	5.9091	-0.0238117	0.00441605	19.0667	0.000561267	1	10	0.0104316	0.000436286	0.0418231	0.000226918	0.0418237	0.310865
43476.5	23.8277	0.454677	23.8321	-1.09318	6.31808	-0.0237991	0.00355823	8.05123	0.00293052	1	10	0.0103732	0.000435262	0.0419526	0.000800532	0.0419603	1.09318
29384.8	23.8814	0.837913	23.8961	-2.00948	6.72708	-0.0237954	0.00404122	6.46397	0.00794776	1	10	0.0101269	0.000423788	0.0418222	0.00146739	0.0418479	2.00948
19853.5	23.8738	1.267	23.9074	-3.03788	7.00408	-0.0238184	0.0042016	6.32711	0.0177703	1	10	0.0109657	0.000458675	0.0417693	0.00221673	0.041828	3.03788
13418	23.9917	1.88748	24.0658	-4.49834	7.4131	-0.0238059	0.00319272	6.2842	0.0386559	1	10	0.0102232	0.000424801	0.0414248	0.00325899	0.0415528	4.49834
9082.03	24.055	2.72392	24.2087	-6.46049	7.71033	-0.0238077	0.00290367	6.43344	0.0814494	1	10	0.0104222	0.000430514	0.0410451	0.00464783	0.0413074	6.46049
6140.96	24.2858	3.91396	24.5992	-9.15521	8.11366	-0.0238213	0.000361893	6.62167	0.167633	1	10	0.010521	0.000427698	0.0401339	0.00646808	0.0406518	9.15521
4141.32	24.5715	5.58539	25.1983	-12.8064	8.57966	-0.0237932	0.00228641	6.88061	0.338057	1	10	0.0105656	0.000419298	0.038698	0.00879649	0.0396851	12.8064
2797.31	25.0313	8.00846	26.2812	-17.7414	9.04596	-0.0237959	0.00231065	7.10445	0.659686	1	10	0.0105708	0.000402218	0.0362404	0.0115947	0.03805	17.7414
1890.6	25.8076	11.3503	28.1933	-23.7401	9.51071	-0.0237924	0.00253629	7.41672	1.20209	1	10	0.010564	0.000374699	0.032468	0.0142796	0.0354694	23.7401
1287.12	26.8362	15.9716	31.2294	-30.759	9.97718	-0.023792	0.00289994	7.74201	2.02499	1	10	0.0105588	0.000338104	0.0275166	0.0163765	0.0320211	30.759
863.066	28.5829	22.5884	36.431	-38.3185	10.6962	-0.0238075	0.000289792	8.16378	3.13848	1	11	0.0107848	0.000296034	0.021536	0.0170194	0.0274492	38.3185
583.692	31.1508	31.518	44.3143	-45.3357	11.1632	-0.0238134	0.000345732	8.65123	4.3763	1	11	0.0106926	0.00024129	0.0158629	0.0160498	0.0225661	45.3357
394.117	34.9155	43.7646	55.9861	-51.417	11.6302	-0.0238146	0.000265362	9.22723	5.63843	1	11	0.0106203	0.000189695	0.0111393	0.0139625	0.0178616	51.417
266.449	40.4081	60.2514	72.5468	-56.1519	12.0937	-0.0238169	0.000311791	9.91376	6.8381	1	11	0.0105758	0.000145779	0.00767771	0.011448	0.0137842	56.1519
180.058	48.1076	82.6026	95.5905	-59.7835	12.5587	-0.023816	0.000424792	10.7008	7.99049	1	11	0.0105511	0.000110378	0.00526483	0.00903992	0.0104613	59.7835
121.595	58.8807	112.903	127.334	-62.4572	13.0181	-0.0238168	0.000254171	11.5931	9.11419	1	11	0.0105353	8.27377e-05	0.00363147	0.0069633	0.00785335	62.4572
82.2368	73.8625	153.186	170.064	-64.2578	13.4733	-0.0238144	0.000272818	12.6338	10.2506	1	11	0.0105245	6.18856e-05	0.00255388	0.00529659	0.00588015	64.2578
55.5152	94.858	208.542	229.102	-65.541	14.1859	-0.023819	-5.56177e-05	13.7472	11.3905	1	12	0.0105609	4.60967e-05	0.00180724	0.00397315	0.00436487	65.541
37.5601	122.84	282.267	307.838	-66.4817	14.6768	-0.0238125	-4.00208e-05	15.0118	12.6214	1	12	0.0105408	3.42413e-05	0.00129627	0.00297862	0.00324846	66.4817
25.3653	161.629	380.7	413.589	-66.996	15.1359	-0.023824	-5.4797e-06	16.4816	13.9645	1	12	0.0105301	2.54602e-05	0.000944887	0.00222558	0.00241786	66.996
17.1327	216.128	516.396	559.8	-67.2891	15.5488	-0.0238316	-0.000333143	17.9892	15.3078	1	12	0.0105217	1.87956e-05	0.000689678	0.00164785	0.00178635	67.2891
11.5912	281.062	689.578	744.657	-67.8249	15.9583	-0.0238326	-0.000124534	19.9116	17.075	1	12	0.0105244	1.41332e-05	0.000506862	0.00124357	0.0013429	67.8249
7.82815	366.843	935.792	1005.13	-68.5941	16.5403	-0.0238236	-5.07335e-05	21.7261	18.8321	1	12	0.0105214	1.04677e-05	0.00036311	0.000926269	0.000994899	68.5941
5.29302	496.311	1263.06	1357.08	-68.5481	17.8037	-0.0238204	1.37002e-05	23.8062	20.6221	1	13	0.0105278	7.75768e-06	0.000269491	0.000685831	0.000736878	68.5481
3.57551	654.907	1706.04	1827.42	-68.9994	19.0183	-0.0238188	-7.03775e-06	26.0911	22.7401	1	13	0.010529	5.76167e-06	0.000196111	0.00051087	0.000547218	68.9994
2.41723	855.648	2310.93	2464.25	-69.6823	20.7955	-0.0238158	-5.94836e-07	28.4915	25.0564	1	13	0.0105252	4.27114e-06	0.000140905	0.000380555	0.000405803	69.6823
1.63271	1129.81	3153.78	3350.04	-70.2905	23.4064	-0.0238149	4.83452e-06	30.9087	27.3932	1	13	0.0105251	3.14178e-06	0.000100671	0.000281016	0.000298504	70.2905
1.10206	1496.75	4296.35	4549.6	-70.7929	29.1197	-0.0238157	-1.62769e-07	33.6136	29.9756	1	14	0.0105314	2.31479e-06	7.23105e-05	0.000207564	0.000219799	70.7929
0.745609	1978.86	5874.85	6199.17	-71.3847	34.7914	-0.0238223	-3.32883e-07	36.3339	32.6316	1	14	0.010526	1.69797e-06	5.14928e-05	0.000152872	0.000161312	71.3847
0.503902	2639.96	8047.64	8469.58	-71.8383	43.1672	-0.0238141	1.65154e-07	39.2469	35.4338	1	14	0.0105272	1.24295e-06	3.68022e-05	0.000112187	0.00011807	71.8383
0.340103	3523.87	11086.4	11633	-72.3668	55.5607	-0.0238139	1.28834e-06	42.2105	38.3372	1	14	0.0105248	9.04739e-07	2.60399e-05	8.19238e-05	8.59627e-05	72.3668
0.230213	4688.98	15212.1	15918.4	-72.8686	73.854	-0.0238134	-1.24612e-07	45.4467	41.5034	1	14	0.0105278	6.61365e-07	1.85047e-05	6.00333e-05	6.28206e-05	72.8686
0.155473	6323.75	21027.2	21957.5	-73.2618	100.925	-0.0238183	-2.14928e-07	48.6838	44.6458	1	14	0.0105247	4.7932e-07	1.31162e-05	4.36128e-05	4.55424e-05	73.2618
0.105049	8513.91	29079.7	30300.4	-73.6811	140.974	-0.0238208	-2.12211e-07	52.1	47.9866	1	14	0.0105262	3.47395e-07	9.27324e-06	3.16732e-05	3.30028e-05	73.6811
0.0710227	11743.7	40300.8	41977	-73.7538	200.195	-0.0238158	-3.72715e-07	55.6044	51.2524	1	14	0.0105267	2.50773e-07	6.66472e-06	2.28713e-05	2.38226e-05	73.7538
0.0479883	16380.5	55980.1	58327.5	-73.6899	287.826	-0.0238147	2.46569e-07	59.2449	54.5723	1	14	0.0105259	1.80462e-07	4.81482e-06	1.64546e-05	1.71446e-05	73.6899
0.0324439	23258.4	77212	80638.9	-73.2363	417.426	-0.0238132	-1.57286e-07	63.5334	58.2481	1	14	0.0105247	1.30517e-07	3.57676e-06	1.18739e-05	1.2401e-05	73.2363
0.0219206	33486.1	106690	111822	-72.5748	609.227	-0.0238125	-6.50765e-07	68.0525	61.9498	1	14	0.0105262	9.41343e-08	2.67802e-06	8.53242e-06	8.94281e-06	72.5748
0.0148076	48739.6	146318	154222	-71.5767	893.145	-0.0238135	-7.03256e-07	73.4578	66.1209	1	14	0.010528	6.82655e-08	2.04922e-06	6.15183e-06	6.48416e-06	71.5767
0.0100006	71375.7	200507	212832	-70.4055	1313.52	-0.0238072	-7.01424e-07	79.3712	70.4445	1	14	0.0105273	4.9463e-08	1.57571e-06	4.42644e-06	4.69854e-06	70.4055