File: Python Codes/Alyssa_Old_Files/Functions.py/EIS Results/EIS_2023_07_08_Temp_In_Out_GB/0708_01_EIS_0.5MTFSI_Blocking_InsideGB_day_2_60C_t2_C01.mpt
EC-Lab ASCII FILE
Nb header lines : 62

Potentio Electrochemical Impedance Spectroscopy

Run on channel : 1 (SN 35512)
User :
CE vs. WE compliance from -10 V to 10 V
Electrode connection : standard
Ewe ctrl range : min = -5.00 V, max = 5.00 V
Safety Limits :
	Do not start on E overload
Acquisition started on : 07/09/2023 16:26:35
Technique started on : 07/09/2023 16:26:36
Saved on :
	File : 0708_01_EIS_0.5MTFSI_Blocking_InsideGB_day_2_60C_t2_C01.mpr
	Directory : C:\Users\CESL\Documents\EC-Lab\Data\PhD\Leifer\Results\Zn Ion GPE\2023\0708\
	Host : 10.110.196.171
Device : VSP (SN 1724172417241724)
Address : USB
EC-Lab for windows v11.16 (software)
Internet server v11.16 (firmware)
Command interpretor v11.16 (firmware)
Electrode material : Au/Pd
Initial state :
Electrolyte : NaCl (0.2M)
Comments : Fe(CN)63-/Fe(CN)64- 5.10-3 M
Reference electrode : SCE Saturated Calomel Electrode (0.241 V)
Electrode surface area : 0.001 cm²
Characteristic mass : 0.001 g
Equivalent Weight : 0.000 g/eq.
Density : 0.000 g/cm3
Cycle Definition : Charge/Discharge alternance
Mode                Single sine
E (V)               0.0000
vs.                 Eoc
tE (h:m:s)          0:00:0.0000
record              0
dI                  0.000
unit dI             mA
dt (s)              0.000
fi                  1.000
unit fi             MHz
ff                  10.000
unit ff             mHz
Nd                  6
Points              per decade
spacing             Logarithmic
Va (mV)             10.0
pw                  0.10
Na                  2
corr                1
E range min (V)     -5.000
E range max (V)     5.000
I Range             Auto
Bandwidth           5
nc cycles           0
goto Ns'            0
nr cycles           0
inc. cycle          0

freq/Hz	Re(Z)/Ohm	-Im(Z)/Ohm	|Z|/Ohm	Phase(Z)/deg	time/s	<Ewe>/V	<I>/mA	Cs/µF	Cp/µF	cycle number	I Range	|Ewe|/V	|I|/A	Re(Y)/Ohm-1	Im(Y)/Ohm-1	|Y|/Ohm-1	Phase(Y)/deg
1.00002e+06	2.97978	4.40687	5.31974	-55.9348	1.97409	0.0532843	0.0545768	0.0361145	0.0247835	1	9	0.000150754	2.83387e-05	0.105294	0.155722	0.187979	55.9348
675752	11.503	-9.74675	15.0771	40.2753	2.6771	0.052808	-0.00180735	-0.0241642	-0.0100985	1	10	0.000781082	5.18059e-05	0.0506031	-0.0428771	0.0663258	-40.2753
456640	6.80522	-3.52583	7.66436	27.389	3.0861	0.0529148	-0.000968208	-0.0988517	-0.0209197	1	10	0.00261638	0.000341369	0.115848	-0.0600218	0.130474	-27.389
308574	5.78564	-1.82134	6.06555	17.4742	3.49508	0.0527033	0.000277451	-0.283184	-0.0255336	1	10	0.00673535	0.00111043	0.157257	-0.0495053	0.164866	-17.4742
208525	5.39602	-0.936896	5.47676	9.8499	3.90409	0.0526786	0.00227647	-0.814648	-0.02384	1	10	0.0104827	0.00191403	0.179898	-0.0312352	0.18259	-9.8499
140908	5.25084	-0.335332	5.26154	3.65409	4.44508	0.0526995	0.00525444	-3.36829	-0.0136815	1	10	0.010181	0.00193498	0.189672	-0.0121129	0.190058	-3.65409
95214.8	5.19268	0.172974	5.19556	-1.90788	4.98608	0.0527205	0.00470435	9.66351	0.010711	1	10	0.0101069	0.00194529	0.192365	0.00640791	0.192472	1.90788
64345.7	5.18976	0.692819	5.2358	-7.60387	5.3951	0.0527033	0.00570385	3.57011	0.0625106	1	10	0.0107577	0.00205464	0.189313	0.0252728	0.190993	7.60387
43476.5	5.21141	1.28755	5.36811	-13.8777	5.8041	0.0527227	0.00468383	2.84317	0.163563	1	10	0.0107475	0.0020021	0.180848	0.0446807	0.186285	13.8777
29384.8	5.27472	2.05227	5.6599	-21.2599	6.21308	0.0527138	0.00531225	2.63914	0.346989	1	10	0.010673	0.00188571	0.164657	0.0640645	0.176681	21.2599
19853.5	5.36908	3.10127	6.20039	-30.0115	6.6221	0.0527212	0.0054782	2.5849	0.646673	1	10	0.0104865	0.00169127	0.139657	0.0806681	0.16128	30.0115
13418	5.51312	4.55485	7.1513	-39.5629	7.03109	0.052711	0.00522272	2.60411	1.05642	1	10	0.0102568	0.00143425	0.107802	0.0890642	0.139835	39.5629
9082.03	5.73657	6.63467	8.77081	-49.1522	7.32833	0.0527233	0.00741378	2.6413	1.51139	1	10	0.0101737	0.00115995	0.0745715	0.0862463	0.114015	49.1522
6140.96	6.06516	9.59272	11.3493	-57.6962	7.73164	0.0527235	0.0094743	2.70173	1.93014	1	10	0.00965406	0.000850631	0.0470874	0.0744739	0.0881112	57.6962
4141.32	6.58334	13.8486	15.3338	-64.5746	8.1977	0.0527646	0.0140559	2.77507	2.26354	1	10	0.00927106	0.000604616	0.0279994	0.058899	0.0652155	64.5746
2797.31	7.27188	19.9394	21.2241	-69.9632	8.66393	0.0527633	0.0136513	2.85342	2.51846	1	10	0.00904312	0.000426079	0.0161432	0.0442645	0.0471163	69.9632
1890.6	8.29872	28.5864	29.7666	-73.8118	9.34971	0.0527718	0.0148447	2.94483	2.71594	1	10	0.00982077	0.000329926	0.00936595	0.0322627	0.0335947	73.8118
1287.12	9.85277	40.9708	42.1389	-76.4781	10.0682	0.0527543	0.000754462	3.01806	2.85306	1	11	0.0102361	0.000242914	0.00554872	0.0230732	0.023731	76.4781
863.066	12.1483	59.3585	60.5889	-78.4336	10.5352	0.0527486	0.000672056	3.10666	2.98176	1	11	0.00994584	0.000164153	0.00330926	0.0161695	0.0165047	78.4336
583.692	15.3162	85.2259	86.5912	-79.812	11.0022	0.0527449	0.000700765	3.19937	3.09927	1	11	0.00982378	0.00011345	0.00204269	0.0113664	0.0115485	79.812
394.117	20.425	122.475	124.167	-80.532	11.4692	0.0527433	0.00052794	3.29721	3.20799	1	11	0.00975849	7.8592e-05	0.00132481	0.00794399	0.0080537	80.532
266.449	27.8222	175.372	177.566	-80.9854	11.9327	0.0527433	0.000691442	3.406	3.32238	1	11	0.00972126	5.47474e-05	0.000882416	0.00556216	0.00563172	80.9854
180.058	39.8369	252.784	255.903	-81.0442	12.6507	0.0527417	0.000110929	3.49671	3.41197	1	12	0.00982476	3.83924e-05	0.000608322	0.00386008	0.00390772	81.0442
121.595	58.7193	362.173	366.902	-80.7907	13.1111	0.0527463	1.70445e-05	3.61399	3.52143	1	12	0.00975848	2.6597e-05	0.000436195	0.00269039	0.00272552	80.7907
82.2368	86.0194	515.17	522.302	-80.5206	13.5663	0.0527453	-0.000122309	3.75667	3.65478	1	12	0.00972479	1.86191e-05	0.000315321	0.00188846	0.0019146	80.5206
55.5152	132.335	736.78	748.57	-79.8176	14.0289	0.0527433	4.34712e-05	3.89108	3.76948	1	12	0.00971204	1.29741e-05	0.000236161	0.00131484	0.00133588	79.8176
37.5601	209.177	1033.91	1054.86	-78.5625	14.5208	0.0527509	3.12926e-05	4.09838	3.93722	1	12	0.00970425	9.1996e-06	0.000187987	0.000929171	0.000947997	78.5625
25.3653	325.122	1444.28	1480.42	-77.3137	14.9799	0.0527528	0.000181276	4.34439	4.13486	1	12	0.00969972	6.55199e-06	0.000148345	0.000658992	0.000675482	77.3137
17.1327	460.584	1993.51	2046.02	-76.9905	15.6218	0.0527371	6.81184e-06	4.6599	4.42376	1	13	0.00971748	4.74944e-06	0.000110024	0.000476208	0.000488753	76.9905
11.5912	662.147	2764.25	2842.45	-76.5292	16.0313	0.0527285	-2.99568e-06	4.96722	4.69767	1	13	0.00970357	3.41381e-06	8.19539e-05	0.000342131	0.000351809	76.5292
7.82815	919.173	3808.65	3918	-76.4318	16.6133	0.0527393	-3.76965e-06	5.33813	5.04433	1	13	0.00970563	2.47719e-06	5.98782e-05	0.000248109	0.000255232	76.4318
5.29302	1176.43	5273.86	5403.48	-77.425	17.4497	0.0527476	-8.44216e-07	5.70148	5.43123	1	13	0.00970368	1.79582e-06	4.0292e-05	0.000180627	0.000185066	77.425
3.57551	1491.33	7424.08	7572.39	-78.6418	19.2733	0.0527548	2.47725e-06	5.99568	5.76313	1	14	0.0097113	1.28246e-06	2.6008e-05	0.000129472	0.000132059	78.6418
2.41723	1859.28	10511.4	10674.6	-79.9692	21.0505	0.052755	6.77324e-07	6.26384	6.07381	1	14	0.00970711	9.09367e-07	1.63171e-05	9.22485e-05	9.36805e-05	79.9692
1.63271	2334.27	15079.8	15259.4	-81.2008	23.6613	0.0527521	5.26139e-07	6.46422	6.31295	1	14	0.00970227	6.35822e-07	1.00248e-05	6.4762e-05	6.55333e-05	81.2008
1.10206	3112.83	21776.1	21997.5	-81.8649	27.5096	0.0527501	8.23973e-07	6.63184	6.49904	1	14	0.00970068	4.4099e-07	6.43294e-06	4.50022e-05	4.54597e-05	81.8649
0.745609	4294.64	31383	31675.5	-82.2077	33.1824	0.0527509	1.34942e-06	6.80166	6.67663	1	14	0.00970016	3.06236e-07	4.28037e-06	3.12787e-05	3.15702e-05	82.2077
0.503902	6401.23	45289.5	45739.7	-81.9551	41.5582	0.0527475	1.49138e-07	6.97391	6.83732	1	14	0.00970017	2.12073e-07	3.05969e-06	2.16477e-05	2.18629e-05	81.9551
0.340103	9577.42	65199.7	65899.4	-81.6434	53.9517	0.0527505	7.03083e-07	7.17735	7.02575	1	14	0.00969876	1.47175e-07	2.20539e-06	1.50135e-05	1.51746e-05	81.6434
0.230213	15046.8	93281.2	94487	-80.8368	72.245	0.0527492	9.2136e-07	7.41134	7.22339	1	14	0.00970101	1.0267e-07	1.68538e-06	1.04484e-05	1.05835e-05	80.8368
0.155473	24261.4	133819	136001	-79.7239	99.3162	0.052749	1.20032e-06	7.64974	7.4063	1	14	0.0097026	7.13421e-08	1.31169e-06	7.23494e-06	7.35289e-06	79.7239
0.105049	39548.8	189220	193309	-78.1946	139.366	0.0527469	1.09236e-06	8.00683	7.6717	1	14	0.00970004	5.01789e-08	1.05835e-06	5.06365e-06	5.17307e-06	78.1946
0.0710227	65543.9	266891	274822	-76.2022	198.586	0.0527438	1.03381e-06	8.39631	7.91873	1	14	0.00970179	3.53021e-08	8.67821e-07	3.53372e-06	3.63872e-06	76.2022
0.0479883	106903	371104	386195	-73.9301	286.217	0.0527438	1.08428e-06	8.93694	8.25215	1	14	0.00970057	2.51183e-08	7.16764e-07	2.48819e-06	2.58937e-06	73.9301
0.0324439	180399	506082	537274	-70.3808	415.817	0.0527408	1.40478e-06	9.69317	8.60036	1	14	0.00970073	1.80555e-08	6.24948e-07	1.75319e-06	1.86125e-06	70.3808
0.0219206	293707	682473	742989	-66.715	607.618	0.0527414	1.47717e-06	10.6386	8.97611	1	14	0.00970041	1.30559e-08	5.32046e-07	1.23629e-06	1.34591e-06	66.715
0.0148076	475862	889998	1.00923e+06	-61.8676	891.537	0.0527388	1.90603e-06	12.0766	9.39173	1	14	0.00970122	9.61251e-09	4.672e-07	8.73797e-07	9.90856e-07	61.8676
0.0100006	735922	1.11823e+06	1.33867e+06	-56.6506	1311.91	0.0527362	2.08114e-06	14.2318	9.93071	1	14	0.00970092	7.24671e-09	4.10665e-07	6.24005e-07	7.47012e-07	56.6506