File: Python Codes/Alyssa_Old_Files/Functions.py/EIS Results/EIS_2023_07_08_Temp_In_Out_GB/0708_01_EIS_0.5MTFSI_Blocking_InsideGB_day_2_60C_overnight_C01.mpt
EC-Lab ASCII FILE
Nb header lines : 62

Potentio Electrochemical Impedance Spectroscopy

Run on channel : 1 (SN 35512)
User :
CE vs. WE compliance from -10 V to 10 V
Electrode connection : standard
Ewe ctrl range : min = -5.00 V, max = 5.00 V
Safety Limits :
	Do not start on E overload
Acquisition started on : 07/10/2023 07:23:04
Technique started on : 07/10/2023 07:23:05
Saved on :
	File : 0708_01_EIS_0.5MTFSI_Blocking_InsideGB_day_2_60C_overnight_C01.mpr
	Directory : C:\Users\CESL\Documents\EC-Lab\Data\PhD\Leifer\Results\Zn Ion GPE\2023\0708\
	Host : 10.110.196.171
Device : VSP (SN 1724172417241724)
Address : USB
EC-Lab for windows v11.16 (software)
Internet server v11.16 (firmware)
Command interpretor v11.16 (firmware)
Electrode material : Au/Pd
Initial state :
Electrolyte : NaCl (0.2M)
Comments : Fe(CN)63-/Fe(CN)64- 5.10-3 M
Reference electrode : SCE Saturated Calomel Electrode (0.241 V)
Electrode surface area : 0.001 cm²
Characteristic mass : 0.001 g
Equivalent Weight : 0.000 g/eq.
Density : 0.000 g/cm3
Cycle Definition : Charge/Discharge alternance
Mode                Single sine
E (V)               0.0000
vs.                 Eoc
tE (h:m:s)          0:00:0.0000
record              0
dI                  0.000
unit dI             mA
dt (s)              0.000
fi                  1.000
unit fi             MHz
ff                  10.000
unit ff             mHz
Nd                  6
Points              per decade
spacing             Logarithmic
Va (mV)             10.0
pw                  0.10
Na                  2
corr                1
E range min (V)     -5.000
E range max (V)     5.000
I Range             Auto
Bandwidth           5
nc cycles           0
goto Ns'            0
nr cycles           0
inc. cycle          0

freq/Hz	Re(Z)/Ohm	-Im(Z)/Ohm	|Z|/Ohm	Phase(Z)/deg	time/s	<Ewe>/V	<I>/mA	Cs/µF	Cp/µF	cycle number	I Range	|Ewe|/V	|I|/A	Re(Y)/Ohm-1	Im(Y)/Ohm-1	|Y|/Ohm-1	Phase(Y)/deg
1.00002e+06	2.42539	5.08961	5.63796	-64.5205	1.97509	0.00601651	0.0496132	0.03127	0.0254831	1	9	0.000151158	2.68107e-05	0.0763021	0.160118	0.177369	64.5205
675752	10.9146	-9.62517	14.5524	41.4078	2.6781	0.00558451	-0.00224742	-0.0244695	-0.0107046	1	10	0.000750503	5.15724e-05	0.0515393	-0.0454505	0.0687171	-41.4078
456640	6.54389	-3.54362	7.44176	28.4362	3.08708	0.00570417	-0.000470325	-0.0983555	-0.0223019	1	10	0.00254831	0.000342434	0.118164	-0.0639876	0.134377	-28.4362
308574	5.56755	-1.82419	5.85878	18.1412	3.49608	0.00550194	-0.000188733	-0.282742	-0.0274104	1	10	0.00651909	0.0011127	0.1622	-0.0531442	0.170684	-18.1412
208525	5.19059	-0.949772	5.27677	10.3692	3.90508	0.00547439	0.003179	-0.803603	-0.0260342	1	10	0.0104409	0.00197865	0.186415	-0.0341101	0.18951	-10.3692
140908	5.05053	-0.348947	5.06257	3.95236	4.44608	0.0054875	0.00431648	-3.23686	-0.0153781	1	10	0.010159	0.0020067	0.197058	-0.013615	0.197528	-3.95236
95214.8	5.00351	0.150707	5.00578	-1.72524	4.98709	0.00548871	0.00354263	11.0913	0.0100532	1	10	0.0101248	0.00202262	0.199678	0.00601436	0.199769	1.72524
64345.7	4.98957	0.662179	5.03332	-7.5597	5.39609	0.00549009	0.00287132	3.7353	0.0646498	1	10	0.0107435	0.00213448	0.196949	0.0261376	0.198676	7.5597
43476.5	5.01047	1.24123	5.16192	-13.9136	5.80509	0.0054792	0.00495236	2.94927	0.170527	1	10	0.0107519	0.00208292	0.188042	0.046583	0.193726	13.9136
29384.8	5.0682	1.99821	5.44789	-21.5175	6.21408	0.00549988	0.00506051	2.71055	0.364655	1	10	0.0106663	0.00195788	0.170764	0.0673262	0.183557	21.5175
19853.5	5.15696	3.02075	5.97655	-30.3601	6.62309	0.00549974	0.0041617	2.6538	0.677948	1	10	0.0104595	0.00175009	0.144375	0.0845694	0.167321	30.3601
13418	5.28763	4.45575	6.91468	-40.1199	7.03208	0.00550429	0.00477705	2.66203	1.10538	1	10	0.0103425	0.00149574	0.11059	0.0931916	0.14462	40.1199
9082.03	5.48617	6.49066	8.49863	-49.7942	7.32933	0.00550067	0.00643479	2.6999	1.57481	1	10	0.0102403	0.00120493	0.0759576	0.0898651	0.117666	49.7942
6140.96	5.76228	9.41712	11.0402	-58.5378	7.73264	0.00549957	0.00812796	2.75211	2.00239	1	10	0.00969448	0.000878107	0.0472759	0.0772617	0.090578	58.5378
4141.32	6.21737	13.6319	14.9828	-65.4827	8.19869	0.00554854	0.0139683	2.81919	2.33373	1	10	0.00927716	0.000619187	0.0276963	0.0607254	0.0667432	65.4827
2797.31	6.81769	19.6743	20.8221	-70.8874	8.66494	0.00553824	0.0139627	2.89187	2.58184	1	10	0.00905135	0.000434699	0.0157249	0.0453785	0.0480259	70.8874
1890.6	7.74196	28.2922	29.3323	-74.696	9.35071	0.00554531	0.0143226	2.97545	2.76817	1	10	0.00982863	0.000335079	0.00899825	0.0328832	0.0340921	74.696
1287.12	8.99639	40.7006	41.6831	-77.5359	10.0692	0.00552552	0.000517317	3.03809	2.89657	1	11	0.0102452	0.000245788	0.00517785	0.0234251	0.0239906	77.5359
863.066	10.9699	59.2331	60.2403	-79.5078	10.5362	0.00552935	0.000727427	3.11323	3.00999	1	11	0.00994605	0.000165106	0.00302292	0.0163226	0.0166002	79.5078
583.692	13.8875	85.4706	86.5915	-80.7711	11.0032	0.0055234	0.000587227	3.19021	3.10815	1	11	0.00981459	0.000113344	0.00185214	0.011399	0.0115485	80.7711
394.117	18.4913	123.373	124.751	-81.4759	11.4702	0.00552183	0.000532974	3.27322	3.2013	1	11	0.00975937	7.82308e-05	0.00118817	0.00792742	0.00801597	81.4759
266.449	25.5246	177.901	179.722	-81.8351	11.9337	0.00551833	0.000519177	3.35759	3.28987	1	11	0.00973275	5.41544e-05	0.000790232	0.00550774	0.00556414	81.8351
180.058	36.9758	256.812	259.46	-81.8069	12.6517	0.00553131	-0.000129731	3.44186	3.37196	1	12	0.0098143	3.78258e-05	0.000549256	0.00381481	0.00385415	81.8069
121.595	56.5259	369.44	373.74	-81.301	13.1121	0.0055253	6.32406e-05	3.5429	3.46186	1	12	0.00975329	2.60965e-05	0.000404678	0.00264488	0.00267566	81.301
82.2368	83.5198	527.1	533.676	-80.9962	13.5673	0.00553155	-8.14464e-05	3.67165	3.58172	1	12	0.00972446	1.82217e-05	0.000293248	0.00185071	0.0018738	80.9962
55.5152	130.142	754.485	765.627	-80.2133	14.0289	0.00552763	-3.87754e-05	3.79977	3.68999	1	12	0.00971577	1.269e-05	0.000222015	0.00128711	0.00130612	80.2133
37.5601	220.009	1057.69	1080.33	-78.2496	14.5197	0.00553893	7.62578e-05	4.00621	3.84006	1	12	0.00970597	8.98423e-06	0.000188506	0.000906242	0.00092564	78.2496
25.3653	322.646	1470.63	1505.6	-77.6257	14.9789	0.00552814	-4.36991e-05	4.26657	4.07063	1	12	0.00970633	6.4468e-06	0.000142332	0.000648755	0.000664185	77.6257
17.1327	500.092	2046.03	2106.26	-76.265	15.6208	0.00552685	2.32862e-06	4.54029	4.28433	1	13	0.00971343	4.6117e-06	0.000112727	0.000461199	0.000474775	76.265
11.5912	731.843	2796.36	2890.54	-75.3339	16.0303	0.00553382	1.6927e-05	4.91018	4.59542	1	13	0.00970592	3.35783e-06	8.75913e-05	0.000334684	0.000345956	75.3339
7.82815	987.219	3839.85	3964.73	-75.5816	16.6123	0.00552749	2.10384e-06	5.29476	4.96648	1	13	0.00969683	2.44577e-06	6.28039e-05	0.00024428	0.000252224	75.5816
5.29302	1293.36	5314.6	5469.72	-76.3224	17.4487	0.00553157	4.47384e-06	5.65778	5.34143	1	13	0.00969933	1.77328e-06	4.32305e-05	0.00017764	0.000182825	76.3224
3.57551	1644.69	7396.69	7577.34	-77.464	19.2723	0.00552687	1.06774e-06	6.01789	5.73437	1	14	0.00970889	1.28131e-06	2.86451e-05	0.000128826	0.000131973	77.464
2.41723	2040.72	10431.1	10628.8	-78.9306	21.0495	0.00552964	2.88991e-07	6.31209	6.0794	1	14	0.00970594	9.13173e-07	1.8064e-05	9.23335e-05	9.40839e-05	78.9306
1.63271	2554.72	14834.2	15052.6	-80.2285	23.6603	0.00553383	4.17709e-07	6.57124	6.38196	1	14	0.00970645	6.44836e-07	1.12751e-05	6.54699e-05	6.64337e-05	80.2285
1.10206	3199.52	21361.4	21599.7	-81.4815	27.5095	0.00553163	1.27167e-06	6.76061	6.61227	1	14	0.00970105	4.4913e-07	6.8579e-06	4.57863e-05	4.6297e-05	81.4815
0.745609	4223.1	30708.1	30997.2	-82.1696	33.1812	0.00553467	1.00284e-06	6.95113	6.8221	1	14	0.00970129	3.12973e-07	4.39528e-06	3.19602e-05	3.2261e-05	82.1696
0.503902	5778.44	44539	44912.3	-82.6078	41.557	0.0055278	-8.03568e-08	7.09142	6.97403	1	14	0.00970073	2.15993e-07	2.86471e-06	2.20806e-05	2.22656e-05	82.6078
0.340103	8243.08	64058.5	64586.7	-82.6675	53.9503	0.00552892	7.00459e-07	7.30522	7.18622	1	14	0.00970089	1.50199e-07	1.97607e-06	1.53564e-05	1.54831e-05	82.6675
0.230213	11884.3	92667.9	93426.9	-82.6919	72.2436	0.00552815	8.36348e-07	7.46039	7.33967	1	14	0.0097009	1.03834e-07	1.36154e-06	1.06166e-05	1.07036e-05	82.6919
0.155473	18416	133191	134458	-82.1278	99.3149	0.00552676	7.24244e-07	7.68586	7.54168	1	14	0.00969865	7.21316e-08	1.01865e-06	7.36719e-06	7.43728e-06	82.1278
0.105049	28235.5	192613	194672	-81.6603	139.364	0.00552356	5.55319e-07	7.86577	7.7003	1	14	0.00969949	4.98248e-08	7.45055e-07	5.08253e-06	5.13685e-06	81.6603
0.0710227	46324.4	275760	279624	-80.464	198.585	0.00552423	5.96056e-07	8.12627	7.90324	1	14	0.00969965	3.46882e-08	5.92462e-07	3.52681e-06	3.57623e-06	80.464
0.0479883	79013.6	395169	402990	-78.6929	286.216	0.00552845	6.36778e-07	8.39271	8.07007	1	14	0.00969971	2.40693e-08	4.86533e-07	2.43328e-06	2.48145e-06	78.6929
0.0324439	136184	560080	576399	-76.3336	415.816	0.00552424	6.13526e-07	8.75864	8.26971	1	14	0.00970057	1.68296e-08	4.09903e-07	1.68579e-06	1.73491e-06	76.3336
0.0219206	240675	776795	813226	-72.7854	607.617	0.00552141	6.97863e-07	9.34676	8.5281	1	14	0.00969964	1.19274e-08	3.63923e-07	1.17459e-06	1.22967e-06	72.7854
0.0148076	421922	1.05938e+06	1.14031e+06	-68.2839	891.535	0.00552001	7.64788e-07	10.1458	8.75674	1	14	0.00970017	8.50663e-09	3.24481e-07	8.14719e-07	8.76957e-07	68.2839
0.0100006	724490	1.37161e+06	1.55119e+06	-62.1568	1311.91	0.00551744	7.0553e-07	11.6028	9.07176	1	14	0.00970042	6.25352e-09	3.01093e-07	5.70032e-07	6.44666e-07	62.1568