File: Python Codes/Alyssa_Old_Files/Functions.py/EIS Results/EIS_2023_07_08_Temp_In_Out_GB/0708_01_EIS_0.5MTFSI_Blocking_OutsideGB_24hr_60C_t2_C03.mpt
EC-Lab ASCII FILE
Nb header lines : 62

Potentio Electrochemical Impedance Spectroscopy

Run on channel : 3 (SN 35515)
User :
CE vs. WE compliance from -10 V to 10 V
Electrode connection : standard
Ewe ctrl range : min = -5.00 V, max = 5.00 V
Safety Limits :
	Do not start on E overload
Acquisition started on : 07/09/2023 16:26:51
Technique started on : 07/09/2023 16:26:53
Saved on :
	File : 0708_01_EIS_0.5MTFSI_Blocking_OutsideGB_24hr_60C_t2_C03.mpr
	Directory : C:\Users\CESL\Documents\EC-Lab\Data\PhD\Leifer\Results\Zn Ion GPE\2023\0708\
	Host : 10.110.196.171
Device : VSP (SN 1724172417241724)
Address : USB
EC-Lab for windows v11.16 (software)
Internet server v11.16 (firmware)
Command interpretor v11.16 (firmware)
Electrode material : Au/Pd
Initial state :
Electrolyte : NaCl (0.2M)
Comments : Fe(CN)63-/Fe(CN)64- 5.10-3 M
Reference electrode : SCE Saturated Calomel Electrode (0.241 V)
Electrode surface area : 0.001 cm²
Characteristic mass : 0.001 g
Equivalent Weight : 0.000 g/eq.
Density : 0.000 g/cm3
Cycle Definition : Charge/Discharge alternance
Mode                Single sine
E (V)               0.0000
vs.                 Eoc
tE (h:m:s)          0:00:0.0000
record              0
dI                  0.000
unit dI             mA
dt (s)              0.000
fi                  1.000
unit fi             MHz
ff                  10.000
unit ff             mHz
Nd                  6
Points              per decade
spacing             Logarithmic
Va (mV)             10.0
pw                  0.10
Na                  2
corr                1
E range min (V)     -5.000
E range max (V)     5.000
I Range             Auto
Bandwidth           5
nc cycles           0
goto Ns'            0
nr cycles           0
inc. cycle          0

freq/Hz	Re(Z)/Ohm	-Im(Z)/Ohm	|Z|/Ohm	Phase(Z)/deg	time/s	<Ewe>/V	<I>/mA	Cs/µF	Cp/µF	cycle number	I Range	|Ewe|/V	|I|/A	Re(Y)/Ohm-1	Im(Y)/Ohm-1	|Y|/Ohm-1	Phase(Y)/deg
1.00002e+06	-61.664	13.8313	63.1962	-167.358	2.63908	-0.00352538	-0.00243864	0.0115067	0.000551179	1	11	0.00025815	4.0849e-06	-0.0154401	0.00346323	0.0158237	167.358
675752	34.0488	-10.5782	35.6542	17.2588	3.04809	-0.00418464	-0.0012223	-0.022265	-0.00195985	1	11	0.00124518	3.49237e-05	0.0267844	-0.00832127	0.0280472	-17.2588
456640	19.9974	-3.90345	20.3748	11.0451	3.7511	-0.00419353	0.00151064	-0.0892888	-0.00327723	1	10	0.00688743	0.000338037	0.0481711	-0.0094029	0.0490802	-11.0451
308574	16.6903	-2.0726	16.8185	7.07875	4.16009	-0.00445848	0.00154794	-0.248854	-0.00377921	1	10	0.0106608	0.00063387	0.059005	-0.00732724	0.0594583	-7.07875
208525	15.5104	-1.17698	15.555	4.33948	4.70109	-0.00446256	0.00176612	-0.648473	-0.00371271	1	10	0.0101684	0.000653706	0.0641038	-0.00486441	0.0642881	-4.33948
140908	15.0285	-0.632522	15.0418	2.41005	5.24209	-0.00445078	0.00215774	-1.7857	-0.00315761	1	10	0.0101284	0.000673353	0.0664225	-0.0027956	0.0664814	-2.41005
95214.8	14.8436	-0.214481	14.8451	0.827833	5.65109	-0.00444795	0.00169899	-7.7934	-0.00162681	1	10	0.010822	0.000728996	0.0673551	-0.000973242	0.0673622	-0.827833
64345.7	14.8074	0.102242	14.8077	-0.395611	6.06008	-0.00443632	0.00309575	24.1919	0.00115333	1	10	0.010566	0.000713544	0.0675306	0.000466287	0.0675322	0.395611
43476.5	14.7997	0.411934	14.8054	-1.59435	6.46909	-0.00443909	0.00265378	8.88664	0.0068794	1	10	0.0103639	0.000700009	0.0675166	0.00187925	0.0675428	1.59435
29384.8	14.8446	0.734411	14.8627	-2.83231	6.8781	-0.00444744	0.00285705	7.37495	0.0180069	1	10	0.0102624	0.000690481	0.0672002	0.00332462	0.0672824	2.83231
19853.5	14.8937	1.13203	14.9366	-4.34655	7.28708	-0.00442937	0.00294843	7.08148	0.0406758	1	10	0.0101806	0.000681586	0.0667569	0.00507403	0.0669495	4.34655
13418	14.9957	1.67546	15.089	-6.37521	7.56409	-0.0044401	0.00189853	7.07943	0.0872869	1	10	0.0107896	0.000715066	0.0658637	0.00735895	0.0662735	6.37521
9082.03	15.1036	2.41603	15.2956	-9.08829	8.00133	-0.00442271	0.00272092	7.25329	0.180971	1	10	0.0100882	0.000659549	0.0645576	0.0103269	0.0653784	9.08829
6140.96	15.3011	3.47758	15.6913	-12.8045	8.40463	-0.00443662	0.000576355	7.45257	0.366051	1	10	0.0102223	0.00065146	0.0621446	0.014124	0.0637295	12.8045
4141.32	15.588	4.94456	16.3534	-17.5992	8.87069	-0.00440269	0.00350602	7.77237	0.710548	1	10	0.0102589	0.000627326	0.0582873	0.018489	0.0611494	17.5992
2797.31	16.0516	6.98442	17.5053	-23.515	9.33693	-0.0043961	0.00337921	8.14608	1.2968	1	10	0.0102564	0.000585905	0.0523817	0.0227925	0.0571256	23.515
1890.6	16.7942	9.86705	19.4783	-30.4354	9.80167	-0.00440333	0.00368317	8.53163	2.1893	1	10	0.0102433	0.000525882	0.0442647	0.0260068	0.0513393	30.4354
1287.12	17.8005	13.7213	22.4752	-37.6262	10.2682	-0.00440381	0.00325799	9.01173	3.35885	1	10	0.0102168	0.000454581	0.0352394	0.0271637	0.0444936	37.6262
863.066	19.4558	19.2933	27.4	-44.7597	10.7352	-0.00440215	0.00374284	9.55804	4.73894	1	10	0.0101973	0.000372163	0.0259148	0.0256984	0.0364963	44.7597
583.692	21.8187	26.6734	34.4605	-50.717	11.4542	-0.00443156	0.000372584	10.2225	6.1245	1	11	0.0103784	0.000301167	0.0183732	0.0224613	0.0290187	50.717
394.117	25.2656	36.7214	44.5737	-55.4706	11.9212	-0.00443026	0.000357666	10.997	7.46375	1	11	0.0102717	0.000230442	0.0127167	0.0184826	0.0224348	55.4706
266.449	30.3002	50.1856	58.6233	-58.878	12.3847	-0.00443302	0.000323541	11.9022	8.72255	1	11	0.0102177	0.000174293	0.00881667	0.0146029	0.0170581	58.878
180.058	37.2908	68.1784	77.7104	-61.3232	12.8497	-0.00443203	0.000399432	12.9647	9.97925	1	11	0.010187	0.00013109	0.0061751	0.0112899	0.0128683	61.3232
121.595	46.9829	92.1798	103.463	-62.9926	13.3101	-0.00443553	0.000239441	14.1993	11.2713	1	11	0.010166	9.82578e-05	0.00438908	0.0086113	0.00966533	62.9926
82.2368	60.1565	124.005	137.826	-64.1214	13.7653	-0.00443263	0.000290532	15.6068	12.6337	1	11	0.0101569	7.36931e-05	0.00316677	0.00652793	0.0072555	64.1214
55.5152	77.5941	166.869	184.027	-65.0615	14.2269	-0.00443255	0.000331742	17.1804	14.126	1	11	0.0101512	5.51613e-05	0.00229121	0.00492732	0.00543398	65.0615
37.5601	101.654	224.894	246.802	-65.6767	14.9838	-0.00442187	-8.83412e-05	18.8415	15.645	1	12	0.0101729	4.1219e-05	0.00166889	0.00369218	0.00405184	65.6767
25.3653	133.616	301.243	329.546	-66.0803	15.4429	-0.00444072	-1.29566e-05	20.8288	17.4047	1	12	0.0101572	3.08219e-05	0.00123034	0.00277386	0.00303448	66.0803
17.1327	178.772	403.987	441.775	-66.1297	15.8558	-0.00444189	-0.000182242	22.9947	19.2291	1	12	0.0101495	2.29743e-05	0.000916004	0.00206997	0.00226359	66.1297
11.5912	234.49	542.713	591.204	-66.6323	16.2653	-0.00444703	-6.44753e-05	25.3	21.3199	1	12	0.0101538	1.71748e-05	0.000670886	0.00155273	0.00169146	66.6323
7.82815	312.508	722.464	787.156	-66.6087	16.8473	-0.00443813	-2.94492e-05	28.1413	23.7058	1	12	0.0101549	1.29008e-05	0.000504358	0.00116599	0.0012704	66.6087
5.29302	410.739	968.924	1052.39	-67.0273	18.1107	-0.00443523	-2.97638e-06	31.0332	26.306	1	13	0.0101549	9.64936e-06	0.000370864	0.000874859	0.00095022	67.0273
3.57551	537.716	1299.48	1406.34	-67.5206	19.3253	-0.00442977	3.07462e-06	34.254	29.2463	1	13	0.0101524	7.21902e-06	0.000271877	0.000657036	0.000711065	67.5206
2.41723	705.866	1746.7	1883.94	-67.9957	21.1025	-0.00442915	8.83959e-07	37.6949	32.4032	1	13	0.0101515	5.38845e-06	0.000198879	0.000492137	0.000530803	67.9957
1.63271	920.017	2357.24	2530.41	-68.6796	23.7134	-0.00442836	1.11896e-06	41.3532	35.8866	1	13	0.0101511	4.01165e-06	0.000143685	0.000368146	0.000395192	68.6796
1.10206	1207.15	3201.9	3421.9	-69.343	29.4264	-0.00443434	-1.69915e-06	45.1032	39.4902	1	14	0.0101552	2.96772e-06	0.000103093	0.000273447	0.000292236	69.343
0.745609	1586.75	4354.46	4634.55	-69.9785	35.098	-0.00443391	-9.35809e-07	49.0201	43.274	1	14	0.0101552	2.19119e-06	7.3874e-05	0.00020273	0.000215771	69.9785
0.503902	2102.58	5952.01	6312.47	-70.5439	43.4739	-0.00442995	-2.5934e-06	53.0652	47.1779	1	14	0.0101537	1.60851e-06	5.2766e-05	0.000149371	0.000158417	70.5439
0.340103	2788.76	8135.52	8600.22	-71.0789	55.8673	-0.00442753	-2.15817e-06	57.5208	51.4726	1	14	0.0101518	1.18041e-06	3.77043e-05	0.000109993	0.000116276	71.0789
0.230213	3746.09	11147.9	11760.5	-71.4259	74.1605	-0.00442794	-1.06433e-06	62.0149	55.7228	1	14	0.0101525	8.63273e-07	2.70848e-05	8.06013e-05	8.50303e-05	71.4259
0.155473	5037.53	15294.5	16102.7	-71.7697	101.232	-0.00442994	-2.50425e-06	66.9317	60.3813	1	14	0.0101529	6.30509e-07	1.94276e-05	5.89843e-05	6.21013e-05	71.7697
0.105049	6911.62	21044.1	22150.1	-71.818	141.281	-0.00442512	-2.03164e-06	71.9941	64.9843	1	14	0.0101511	4.58288e-07	1.40873e-05	4.28924e-05	4.51466e-05	71.818
0.0710227	9372.54	28873.7	30356.8	-72.0164	200.502	-0.00442248	7.6252e-06	77.6104	70.2123	1	14	0.0101489	3.3432e-07	1.01705e-05	3.13321e-05	3.29415e-05	72.0164
0.0479883	13758.5	39727.6	42042.6	-70.898	288.133	-0.00441847	-4.22439e-06	83.4818	74.5415	1	14	0.010151	2.41446e-07	7.78379e-06	2.24757e-05	2.37854e-05	70.898
0.0324439	18542.8	53734.4	56843.8	-70.9614	417.733	-0.00442035	-4.9757e-06	91.2924	81.5779	1	14	0.0101541	1.78632e-07	5.73863e-06	1.66298e-05	1.75921e-05	70.9614
0.0219206	27642.7	73123.8	78174.2	-69.2921	609.534	-0.00442071	-4.38047e-06	99.2909	86.876	1	14	0.0101517	1.2986e-07	4.52328e-06	1.19655e-05	1.27919e-05	69.2921
0.0148076	41443.1	97005.1	105487	-66.8666	893.452	-0.0044143	-6.81546e-06	110.8	93.6982	1	14	0.0101517	9.62369e-08	3.72438e-06	8.71759e-06	9.47984e-06	66.8666
0.0100006	57092	131071	142966	-66.463	1313.82	-0.00441516	-7.82675e-06	121.419	102.056	1	14	0.0101502	7.09977e-08	2.79327e-06	6.41275e-06	6.99469e-06	66.463