File: Python Codes/Alyssa_Old_Files/Functions.py/EIS Results/EIS_2023_07_08_Temp_In_Out_GB/0708_01_EIS_0.5MTFSI_Blocking_InsideGB_day_2_60C_C01.mpt
EC-Lab ASCII FILE
Nb header lines : 62

Potentio Electrochemical Impedance Spectroscopy

Run on channel : 1 (SN 35512)
User :
CE vs. WE compliance from -10 V to 10 V
Electrode connection : standard
Ewe ctrl range : min = -5.00 V, max = 5.00 V
Safety Limits :
	Do not start on E overload
Acquisition started on : 07/09/2023 15:55:43
Technique started on : 07/09/2023 15:55:44
Saved on :
	File : 0708_01_EIS_0.5MTFSI_Blocking_InsideGB_day_2_60C_C01.mpr
	Directory : C:\Users\CESL\Documents\EC-Lab\Data\PhD\Leifer\Results\Zn Ion GPE\2023\0708\
	Host : 10.110.196.171
Device : VSP (SN 1724172417241724)
Address : USB
EC-Lab for windows v11.16 (software)
Internet server v11.16 (firmware)
Command interpretor v11.16 (firmware)
Electrode material : Au/Pd
Initial state :
Electrolyte : NaCl (0.2M)
Comments : Fe(CN)63-/Fe(CN)64- 5.10-3 M
Reference electrode : SCE Saturated Calomel Electrode (0.241 V)
Electrode surface area : 0.001 cm²
Characteristic mass : 0.001 g
Equivalent Weight : 0.000 g/eq.
Density : 0.000 g/cm3
Cycle Definition : Charge/Discharge alternance
Mode                Single sine
E (V)               0.0000
vs.                 Eoc
tE (h:m:s)          0:00:0.0000
record              0
dI                  0.000
unit dI             mA
dt (s)              0.000
fi                  1.000
unit fi             MHz
ff                  10.000
unit ff             mHz
Nd                  6
Points              per decade
spacing             Logarithmic
Va (mV)             10.0
pw                  0.10
Na                  2
corr                1
E range min (V)     -5.000
E range max (V)     5.000
I Range             Auto
Bandwidth           5
nc cycles           0
goto Ns'            0
nr cycles           0
inc. cycle          0

freq/Hz	Re(Z)/Ohm	-Im(Z)/Ohm	|Z|/Ohm	Phase(Z)/deg	time/s	<Ewe>/V	<I>/mA	Cs/µF	Cp/µF	cycle number	I Range	|Ewe|/V	|I|/A	Re(Y)/Ohm-1	Im(Y)/Ohm-1	|Y|/Ohm-1	Phase(Y)/deg
1.00002e+06	2.633	4.3827	5.1128	-59.0038	1.9751	0.0584822	0.0524309	0.0363137	0.0266831	1	9	0.000168486	3.29538e-05	0.100724	0.167658	0.195587	59.0038
675752	13.1786	-9.73455	16.3841	36.4519	2.67809	0.0579898	0.000251317	-0.0241945	-0.00854093	1	10	0.000833169	5.08524e-05	0.0490938	-0.0362637	0.0610349	-36.4519
456640	7.53548	-3.55284	8.33104	25.243	3.0871	0.058097	0.000238274	-0.0981003	-0.0178412	1	10	0.00283712	0.000340549	0.108571	-0.0511891	0.120033	-25.243
308574	6.37249	-1.80332	6.62273	15.8007	3.49609	0.0579074	0.00202098	-0.286015	-0.021206	1	10	0.00733825	0.00110804	0.14529	-0.0411148	0.150995	-15.8007
208525	5.94632	-0.913258	6.01604	8.73147	3.90409	0.0578558	0.00322934	-0.835733	-0.019259	1	10	0.0106797	0.0017752	0.164296	-0.0252332	0.166222	-8.73147
140908	5.77746	-0.303547	5.78543	3.00755	4.44508	0.057894	0.00448431	-3.72098	-0.0102433	1	10	0.0101597	0.00175609	0.17261	-0.00906892	0.172848	-3.00755
95214.8	5.71888	0.22125	5.72316	-2.21554	4.98609	0.057887	0.005674	7.55495	0.0112909	1	10	0.0101076	0.00176609	0.174598	0.00675479	0.174729	2.21554
64345.7	5.70377	0.758407	5.75397	-7.57395	5.39509	0.0578902	0.00621105	3.26136	0.0566587	1	10	0.0107505	0.00186837	0.172277	0.0229069	0.173793	7.57395
43476.5	5.72882	1.39037	5.89513	-13.6418	5.80408	0.0579094	0.00643295	2.63289	0.146457	1	10	0.0107337	0.00182078	0.164846	0.0400079	0.169632	13.6418
29384.8	5.78689	2.20444	6.19254	-20.8537	6.21309	0.0578954	0.00552855	2.45697	0.311356	1	10	0.0105342	0.00170111	0.150906	0.0574856	0.161485	20.8537
19853.5	5.88363	3.31968	6.75555	-29.4327	6.62208	0.0579051	0.00575603	2.41483	0.58312	1	10	0.0104353	0.0015447	0.128921	0.0727403	0.148026	29.4327
13418	6.02565	4.88619	7.75779	-39.0386	7.03109	0.0578927	0.00416355	2.42752	0.963004	1	10	0.0102776	0.00132481	0.100122	0.0811885	0.128903	39.0386
9082.03	6.24928	7.11604	9.47056	-48.7105	7.32833	0.057907	0.00776435	2.46263	1.39035	1	10	0.0101894	0.0010759	0.0696753	0.079339	0.10559	48.7105
6140.96	6.56742	10.2909	12.2079	-57.4549	7.73163	0.0579121	0.00894285	2.51843	1.78959	1	10	0.00971985	0.000796191	0.0440666	0.0690508	0.0819139	57.4549
4141.32	7.10446	14.9002	16.5073	-64.5081	8.1977	0.0579512	0.0142443	2.57922	2.10147	1	10	0.0093591	0.000566969	0.0260724	0.0546818	0.0605794	64.5081
2797.31	7.82731	21.4381	22.8223	-69.9423	8.66394	0.0579466	0.0139776	2.65395	2.34178	1	10	0.00914604	0.00040075	0.0150277	0.0411591	0.0438167	69.9423
1890.6	8.89003	30.9052	32.1584	-73.9518	9.12869	0.0579555	0.013862	2.72388	2.51572	1	10	0.00904698	0.000281326	0.00859637	0.0298843	0.0310961	73.9518
1287.12	10.5461	44.2539	45.4931	-76.5959	10.0692	0.0579237	0.000787833	2.79416	2.644	1	11	0.0103253	0.000226964	0.00509566	0.0213825	0.0219813	76.5959
863.066	13.0563	64.1417	65.457	-78.4944	10.5362	0.0579276	0.000735815	2.87499	2.7606	1	11	0.0100547	0.000153608	0.00304725	0.0149702	0.0152772	78.4944
583.692	16.4729	92.2924	93.751	-79.88	11.0032	0.0579251	0.000701511	2.95441	2.86319	1	11	0.00993335	0.000105955	0.00187422	0.0105006	0.0106666	79.88
394.117	22.0852	132.315	134.145	-80.5239	11.4702	0.0579275	0.000676341	3.05201	2.96929	1	11	0.00986474	7.35377e-05	0.0012273	0.00735287	0.0074546	80.5239
266.449	30.4002	189.766	192.185	-80.8986	11.9337	0.0579255	0.0006288	3.14766	3.0689	1	11	0.00984577	5.12306e-05	0.000823069	0.0051378	0.00520331	80.8986
180.058	44.0303	274.294	277.805	-80.8805	12.6507	0.0579279	-9.72238e-05	3.2225	3.14155	1	12	0.00993824	3.57741e-05	0.00057052	0.00355414	0.00359964	80.8805
121.595	66.2661	389.607	395.202	-80.3472	13.1111	0.0579302	-1.52574e-05	3.35952	3.26506	1	12	0.00987266	2.49813e-05	0.000424281	0.00249453	0.00253035	80.3472
82.2368	97.6695	553.304	561.858	-79.9892	13.5663	0.0579413	1.75105e-05	3.49776	3.39206	1	12	0.00985232	1.75352e-05	0.000309389	0.00175271	0.00177981	79.9892
55.5152	153.61	776.928	791.968	-78.8161	14.0279	0.0579339	9.55793e-05	3.69001	3.55119	1	12	0.00983827	1.24226e-05	0.000244908	0.0012387	0.00126268	78.8161
37.5601	224.761	1094.88	1117.71	-78.3993	14.5198	0.0579367	6.58136e-06	3.87014	3.71364	1	12	0.00982976	8.79453e-06	0.000179912	0.000876408	0.000894684	78.3993
25.3653	364.465	1542.64	1585.11	-76.707	14.9789	0.057932	-4.1573e-05	4.0674	3.85236	1	12	0.00982566	6.19873e-06	0.000145057	0.000613969	0.000630872	76.707
17.1327	523.558	2110.33	2174.31	-76.0667	15.6198	0.0579312	-3.27165e-05	4.40194	4.14671	1	13	0.00983241	4.52208e-06	0.000110745	0.000446384	0.000459916	76.0667
11.5912	732.081	2897.7	2988.74	-75.8213	16.0293	0.0579275	-1.41366e-05	4.73846	4.45416	1	13	0.00982941	3.28881e-06	8.19563e-05	0.000324396	0.000334589	75.8213
7.82815	988.038	3984.3	4104.98	-76.0726	16.6113	0.0579346	-4.86341e-06	5.1028	4.80718	1	13	0.00982579	2.39363e-06	5.86343e-05	0.000236445	0.000243607	76.0726
5.29302	1289.15	5534.91	5683.06	-76.8888	17.4477	0.0579322	-7.13265e-06	5.43257	5.15303	1	13	0.00982792	1.72934e-06	3.99153e-05	0.000171375	0.000175962	76.8888
3.57551	1606.73	7815.51	7978.96	-78.3829	19.2713	0.0579401	-7.964e-06	5.6954	5.46445	1	14	0.00983338	1.23241e-06	2.52378e-05	0.000122762	0.00012533	78.3829
2.41723	1981.8	11065.9	11242	-79.8465	21.0485	0.0579416	-1.15334e-05	5.94996	5.76506	1	14	0.00982646	8.74087e-07	1.5681e-05	8.75593e-05	8.89524e-05	79.8465
1.63271	2517.36	15903.9	16101.9	-81.0055	23.6594	0.0579399	-1.24388e-05	6.12925	5.97944	1	14	0.00982473	6.10158e-07	9.70932e-06	6.13406e-05	6.21043e-05	81.0055
1.10206	3384.18	22878	23126.9	-81.5857	27.5084	0.0579422	-9.86093e-06	6.31244	6.17727	1	14	0.00982292	4.24739e-07	6.32728e-06	4.27742e-05	4.32396e-05	81.5857
0.745609	4652.84	32920.2	33247.4	-81.9553	33.1801	0.0579358	-1.35495e-05	6.48405	6.35706	1	14	0.00982195	2.9542e-07	4.20924e-06	2.97816e-05	3.00776e-05	81.9553
0.503902	7187.78	47555	48095.1	-81.405	41.5557	0.0579356	-9.98466e-06	6.64168	6.49334	1	14	0.00982323	2.04246e-07	3.10737e-06	2.05586e-05	2.07921e-05	81.405
0.340103	10439.7	67844.8	68643.3	-81.2521	53.9492	0.0579356	-5.85909e-06	6.89753	6.73798	1	14	0.0098225	1.43095e-07	2.2156e-06	1.43986e-05	1.45681e-05	81.2521
0.230213	18194.8	96996.2	98688	-79.3757	72.2425	0.0579363	-1.09791e-05	7.12748	6.88521	1	14	0.00982274	9.95333e-08	1.86819e-06	9.95924e-06	1.01329e-05	79.3757
0.155473	29787.5	133956	137228	-77.4633	99.3137	0.0579324	-2.66854e-06	7.64194	7.28187	1	14	0.00982415	7.159e-08	1.58179e-06	7.11339e-06	7.28714e-06	77.4633
0.105049	44354.8	190080	195186	-76.8652	139.363	0.0579309	9.92191e-07	7.97063	7.55903	1	14	0.00982209	5.03217e-08	1.16424e-06	4.98928e-06	5.12332e-06	76.8652
0.0710227	74073.4	262297	272556	-74.2302	198.584	0.0579276	1.2351e-06	8.54337	7.91235	1	14	0.00982351	3.60422e-08	9.97129e-07	3.53088e-06	3.66897e-06	74.2302
0.0479883	121975	354782	375164	-71.0268	286.215	0.0579318	4.01072e-07	9.34809	8.35994	1	14	0.00982177	2.61799e-08	8.66621e-07	2.52068e-06	2.6655e-06	71.0268
0.0324439	203532	472011	514023	-66.6742	415.815	0.0579262	1.03275e-06	10.3928	8.76343	1	14	0.00982237	1.91088e-08	7.70313e-07	1.78644e-06	1.94544e-06	66.6742
0.0219206	323189	613521	693440	-62.2208	607.616	0.0579293	1.11473e-06	11.8342	9.26359	1	14	0.00982219	1.41644e-08	6.72107e-07	1.27588e-06	1.44209e-06	62.2208
0.0148076	504431	774265	924087	-56.9159	891.534	0.0579324	1.37739e-06	13.8818	9.74538	1	14	0.00982216	1.0629e-08	5.90712e-07	9.067e-07	1.08215e-06	56.9159
0.0100006	747548	961595	1.21799e+06	-52.1383	1311.91	0.0579253	1.32136e-06	16.5501	10.3157	1	14	0.00982112	8.0634e-09	5.03911e-07	6.48197e-07	8.21027e-07	52.1383