File: Python Codes/Alyssa_Old_Files/Functions.py/EIS Results/EIS_2023_07_08_Temp_In_Out_GB/0708_01_EIS_0.5MTFSI_SymCell_OutsideGB_sanded_60C_t2_C04.mpt
EC-Lab ASCII FILE
Nb header lines : 62

Potentio Electrochemical Impedance Spectroscopy

Run on channel : 4 (SN 35517)
User :
CE vs. WE compliance from -10 V to 10 V
Electrode connection : standard
Ewe ctrl range : min = -5.00 V, max = 5.00 V
Safety Limits :
	Do not start on E overload
Acquisition started on : 07/09/2023 16:27:00
Technique started on : 07/09/2023 16:27:02
Saved on :
	File : 0708_01_EIS_0.5MTFSI_SymCell_OutsideGB_sanded_60C_t2_C04.mpr
	Directory : C:\Users\CESL\Documents\EC-Lab\Data\PhD\Leifer\Results\Zn Ion GPE\2023\0708\
	Host : 10.110.196.171
Device : VSP (SN 1724172417241724)
Address : USB
EC-Lab for windows v11.16 (software)
Internet server v11.16 (firmware)
Command interpretor v11.16 (firmware)
Electrode material : Au/Pd
Initial state :
Electrolyte : NaCl (0.2M)
Comments : Fe(CN)63-/Fe(CN)64- 5.10-3 M
Reference electrode : SCE Saturated Calomel Electrode (0.241 V)
Electrode surface area : 0.001 cm²
Characteristic mass : 0.001 g
Equivalent Weight : 0.000 g/eq.
Density : 0.000 g/cm3
Cycle Definition : Charge/Discharge alternance
Mode                Single sine
E (V)               0.0000
vs.                 Eoc
tE (h:m:s)          0:00:0.0000
record              0
dI                  0.000
unit dI             mA
dt (s)              0.000
fi                  1.000
unit fi             MHz
ff                  10.000
unit ff             mHz
Nd                  6
Points              per decade
spacing             Logarithmic
Va (mV)             10.0
pw                  0.10
Na                  2
corr                1
E range min (V)     -5.000
E range max (V)     5.000
I Range             Auto
Bandwidth           5
nc cycles           0
goto Ns'            0
nr cycles           0
inc. cycle          0

freq/Hz	Re(Z)/Ohm	-Im(Z)/Ohm	|Z|/Ohm	Phase(Z)/deg	time/s	<Ewe>/V	<I>/mA	Cs/µF	Cp/µF	cycle number	I Range	|Ewe|/V	|I|/A	Re(Y)/Ohm-1	Im(Y)/Ohm-1	|Y|/Ohm-1	Phase(Y)/deg
1.00002e+06	193.261	-29.6899	195.528	8.73384	2.48808	0.00278994	0.000186747	-0.00536047	-0.000123595	1	11	0.000744517	3.80772e-06	0.00505505	-0.000776587	0.00511435	-8.73384
675752	50.867	-3.96795	51.0215	4.46041	2.89708	0.0027001	-0.000122974	-0.0593562	-0.000358999	1	11	0.0029111	5.70563e-05	0.0195402	-0.00152426	0.0195996	-4.46041
456640	39.2313	-1.02758	39.2447	1.5004	3.30609	0.00292683	-0.00032852	-0.33918	-0.000232541	1	11	0.00810514	0.000206528	0.0254724	-0.000667196	0.0254811	-1.5004
308574	35.8584	0.854231	35.8686	-1.36466	3.7151	0.00281074	0.000101998	0.603789	0.000342459	1	11	0.0107117	0.000298638	0.0278717	0.000663968	0.0278796	1.36466
208525	34.8611	2.42627	34.9454	-3.98126	4.1241	0.0028465	0.000207104	0.314573	0.00151642	1	11	0.0108981	0.00031186	0.028547	0.00198682	0.028616	3.98126
140908	34.9474	4.03884	35.18	-6.59238	4.53309	0.00287992	4.35429e-06	0.279658	0.00368595	1	11	0.0108345	0.000307973	0.0282373	0.00326336	0.0284253	6.59238
95214.8	35.617	5.60327	36.0551	-8.94049	4.94109	0.00289562	-0.000129878	0.298314	0.00720483	1	11	0.0107055	0.000296919	0.0273984	0.00431031	0.0277353	8.94049
64345.7	36.7083	7.3526	37.4375	-11.3263	5.35008	0.00289944	2.99314e-05	0.336403	0.0129756	1	11	0.0106521	0.000284531	0.026191	0.005246	0.0267112	11.3263
43476.5	38.0699	9.40548	39.2146	-13.8775	5.75908	0.00291574	0.000283273	0.38921	0.0223899	1	11	0.0105961	0.000270208	0.0247564	0.00611627	0.0255007	13.8775
29384.8	39.763	11.9195	41.5111	-16.6869	6.1681	0.00290649	0.000154828	0.454401	0.0374653	1	11	0.0105803	0.00025488	0.0230755	0.00691722	0.02409	16.6869
19853.5	41.645	15.1666	44.3208	-20.011	6.5771	0.00291514	5.45743e-05	0.52856	0.0618952	1	11	0.0104818	0.000236498	0.0212006	0.00772101	0.0225628	20.011
13418	43.7556	19.4905	47.9002	-24.0102	6.98609	0.0029176	-3.14053e-07	0.608569	0.100759	1	11	0.0102803	0.000214619	0.0190703	0.00849472	0.0208767	24.0102
9082.03	46.242	25.5035	52.8087	-28.8777	7.42335	0.00292124	2.75028e-05	0.687127	0.160261	1	11	0.0101368	0.000191954	0.0165816	0.00914513	0.0189363	28.8777
6140.96	49.2011	33.9856	59.7977	-34.6348	7.82665	0.00291148	0.000144558	0.762585	0.246326	1	11	0.0103253	0.000172671	0.0137596	0.00950443	0.016723	34.6348
4141.32	52.8343	45.9016	69.9887	-40.9836	8.2927	0.00294639	0.000779873	0.837245	0.360125	1	11	0.0101788	0.000145434	0.010786	0.00937069	0.014288	40.9836
2797.31	57.5837	62.7292	85.1519	-47.4489	8.75893	0.00294149	0.000776326	0.907003	0.492221	1	11	0.00998648	0.000117278	0.00794166	0.0086513	0.0117437	47.4489
1890.6	63.6947	86.32	107.276	-53.5767	9.22267	0.00295268	0.000767177	0.975232	0.63143	1	11	0.00983124	9.16443e-05	0.00553474	0.00750076	0.00932174	53.5767
1287.12	71.8741	118.491	138.586	-58.76	9.68919	0.0029531	0.000815903	1.04356	0.762869	1	11	0.00972718	7.01888e-05	0.00374226	0.00616947	0.00721574	58.76
863.066	83.1738	165.364	185.103	-63.2988	10.1562	0.00294451	0.000751307	1.11515	0.889999	1	11	0.00966183	5.2197e-05	0.00242749	0.00482629	0.00540239	63.2988
583.692	98.8415	230.747	251.026	-66.8119	10.6232	0.00294969	0.000746639	1.18168	0.998473	1	11	0.0096317	3.83694e-05	0.00156857	0.00366185	0.00398366	66.8119
394.117	119.849	323.834	345.3	-69.6908	11.3422	0.00293632	-5.91172e-05	1.24702	1.09679	1	12	0.00977765	2.83164e-05	0.00100517	0.00271599	0.00289603	69.6908
266.449	151.367	453.843	478.42	-71.5553	11.8057	0.00293306	-6.06106e-05	1.31613	1.18439	1	12	0.0096801	2.02335e-05	0.00066132	0.00198284	0.00209021	71.5553
180.058	198.711	633.144	663.594	-72.5756	12.2707	0.00292937	0.000143831	1.39607	1.27088	1	12	0.00964044	1.45276e-05	0.000451249	0.0014378	0.00150695	72.5756
121.595	264.431	893.012	931.34	-73.5054	12.7311	0.00293778	-6.97942e-05	1.4657	1.34755	1	12	0.00961101	1.03195e-05	0.000304857	0.00102953	0.00107372	73.5054
82.2368	378.506	1263.17	1318.66	-73.3193	13.1863	0.00292987	-5.62287e-06	1.53212	1.40588	1	12	0.00959713	7.27794e-06	0.000217674	0.000726433	0.000758345	73.3193
55.5152	585.372	1738.8	1834.69	-71.3941	13.6479	0.00293144	-2.48714e-06	1.64876	1.48092	1	12	0.00959026	5.22717e-06	0.000173903	0.000516564	0.00054505	71.3941
37.5601	924.734	2390.96	2563.56	-68.8554	14.4047	0.00294141	-3.45759e-05	1.77223	1.54163	1	13	0.00961805	3.75184e-06	0.000140712	0.00036382	0.000390083	68.8554
25.3653	1502.69	3208.47	3542.93	-64.9038	14.8639	0.00294087	-3.11526e-05	1.95561	1.60381	1	13	0.00959918	2.70939e-06	0.000119714	0.000255607	0.000282252	64.9038
17.1327	2439.3	4132.46	4798.69	-59.4475	15.2779	0.00293468	-2.91086e-05	2.24795	1.66709	1	13	0.00959732	1.99999e-06	0.00010593	0.000179458	0.00020839	59.4475
11.5912	3856.92	4991.26	6307.81	-52.3055	15.6873	0.00293254	-2.86382e-05	2.75093	1.72243	1	13	0.00959288	1.52079e-06	9.69355e-05	0.000125445	0.000158534	52.3055
7.82815	5590.21	5519.29	7855.76	-44.6342	16.2693	0.00293724	-3.02996e-05	3.68364	1.81831	1	13	0.00959252	1.22108e-06	9.0584e-05	8.94348e-05	0.000127295	44.6342
5.29302	7584.84	5525.06	9383.82	-36.0709	17.5327	0.00293629	-2.18175e-05	5.44226	1.88666	1	14	0.00959623	1.02264e-06	8.61364e-05	6.27448e-05	0.000106566	36.0709
3.57551	9290.99	5058.27	10578.7	-28.5651	18.7473	0.00294503	-1.98453e-05	8.79994	2.01196	1	14	0.00959508	9.0702e-07	8.3023e-05	4.52e-05	9.45297e-05	28.5651
2.41723	10640.2	4380.24	11506.5	-22.3755	20.5245	0.00294201	-2.00556e-05	15.0315	2.17827	1	14	0.00959325	8.33724e-07	8.0364e-05	3.30835e-05	8.69073e-05	22.3755
1.63271	11702.7	3687.77	12270	-17.4907	23.1354	0.00293814	-2.24712e-05	26.4331	2.38773	1	14	0.00959312	7.81834e-07	7.77313e-05	2.44948e-05	8.14994e-05	17.4907
1.10206	12525.7	3012.74	12883	-13.5241	26.9848	0.00294056	-1.87795e-05	47.935	2.62148	1	14	0.00959461	7.44752e-07	7.54696e-05	1.81523e-05	7.76219e-05	13.5241
0.745609	13164.6	2382.7	13378.5	-10.2591	32.6565	0.00294055	-2.06206e-05	89.586	2.84161	1	14	0.00959495	7.17193e-07	7.35519e-05	1.33124e-05	7.47469e-05	10.2591
0.503902	13656	1772.17	13770.5	-7.39409	41.0323	0.00293882	-2.00957e-05	178.225	2.95176	1	14	0.00959354	6.96676e-07	7.20153e-05	9.34561e-06	7.26192e-05	7.39409
0.340103	13948.7	1184.06	13998.9	-4.85201	53.4257	0.002941	-2.20372e-05	395.218	2.82746	1	14	0.00959386	6.85329e-07	7.11782e-05	6.04207e-06	7.14342e-05	4.85201
0.230213	14088.9	690.429	14105.8	-2.80554	71.7189	0.00293912	-2.02244e-05	1001.32	2.3989	1	14	0.00959348	6.80108e-07	7.08077e-05	3.46994e-06	7.08927e-05	2.80554
0.155473	14117.8	301.383	14121	-1.22295	98.7901	0.00294326	-1.0554e-05	3396.62	1.54723	1	14	0.00959294	6.79338e-07	7.08004e-05	1.51143e-06	7.08165e-05	1.22295
0.105049	14074.4	55.2437	14074.5	-0.224891	138.839	0.00294339	-4.45781e-06	27424.9	0.422516	1	14	0.00959331	6.81608e-07	7.10498e-05	2.78879e-07	7.10504e-05	0.224891
0.0710227	13938.1	-103.305	13938.5	0.42465	198.06	0.00294438	5.31975e-06	-21692.2	-1.19155	1	14	0.00959379	6.88294e-07	7.17418e-05	-5.31727e-07	7.17438e-05	-0.42465
0.0479883	13858	-167.926	13859.1	0.694253	285.691	0.00294346	2.91903e-05	-19750	-2.89958	1	14	0.00959281	6.92169e-07	7.21497e-05	-8.74281e-07	7.2155e-05	-0.694253
0.0324439	13989.7	-158.281	13990.6	0.648223	415.291	0.00294752	7.76815e-05	-30992.7	-3.96683	1	14	0.00959397	6.85746e-07	7.14721e-05	-8.08643e-07	7.14767e-05	-0.648223
0.0219206	14185.1	-47.3922	14185.2	0.191423	607.091	0.00294958	0.000167297	-153201	-1.71002	1	14	0.00959368	6.76315e-07	7.04955e-05	-2.35524e-07	7.04959e-05	-0.191423
0.0148076	14159.2	87.5698	14159.4	-0.354351	891.008	0.0029489	0.000285129	122738	4.6946	1	14	0.00959394	6.77565e-07	7.0623e-05	4.3678e-07	7.06243e-05	0.354351
0.0100006	13921.4	-123.014	13922	0.506271	1311.38	0.00294821	0.00042496	-129371	-10.1006	1	14	0.00959204	6.88985e-07	7.18261e-05	-6.34678e-07	7.18289e-05	-0.506271