File: Python Codes/Alyssa_Old_Files/Functions.py/EIS Results/EIS_2023_07_08_Temp_In_Out_GB/0708_01_EIS_0.5MTFSI_SymCell_OutsideGB_unsanded_RT_C04_C05.mpt
EC-Lab ASCII FILE
Nb header lines : 62

Potentio Electrochemical Impedance Spectroscopy

Run on channel : 5 (SN 35518)
User :
CE vs. WE compliance from -10 V to 10 V
Electrode connection : standard
Ewe ctrl range : min = -5.00 V, max = 5.00 V
Safety Limits :
	Do not start on E overload
Acquisition started on : 07/09/2023 14:49:45
Technique started on : 07/09/2023 14:49:47
Saved on :
	File : 0708_01_EIS_0.5MTFSI_SymCell_OutsideGB_unsanded_RT_C04_C05.mpr
	Directory : C:\Users\CESL\Documents\EC-Lab\Data\PhD\Leifer\Results\Zn Ion GPE\2023\0708\
	Host : 10.110.196.171
Device : VSP (SN 1724172417241724)
Address : USB
EC-Lab for windows v11.16 (software)
Internet server v11.16 (firmware)
Command interpretor v11.16 (firmware)
Electrode material : Au/Pd
Initial state :
Electrolyte : NaCl (0.2M)
Comments : Fe(CN)63-/Fe(CN)64- 5.10-3 M
Reference electrode : SCE Saturated Calomel Electrode (0.241 V)
Electrode surface area : 0.001 cm²
Characteristic mass : 0.001 g
Equivalent Weight : 0.000 g/eq.
Density : 0.000 g/cm3
Cycle Definition : Charge/Discharge alternance
Mode                Single sine
E (V)               0.0000
vs.                 Eoc
tE (h:m:s)          0:00:0.0000
record              0
dI                  0.000
unit dI             mA
dt (s)              0.000
fi                  1.000
unit fi             MHz
ff                  10.000
unit ff             mHz
Nd                  6
Points              per decade
spacing             Logarithmic
Va (mV)             10.0
pw                  0.10
Na                  2
corr                1
E range min (V)     -5.000
E range max (V)     5.000
I Range             Auto
Bandwidth           5
nc cycles           0
goto Ns'            0
nr cycles           0
inc. cycle          0

freq/Hz	Re(Z)/Ohm	-Im(Z)/Ohm	|Z|/Ohm	Phase(Z)/deg	time/s	<Ewe>/V	<I>/mA	Cs/µF	Cp/µF	cycle number	I Range	|Ewe|/V	|I|/A	Re(Y)/Ohm-1	Im(Y)/Ohm-1	|Y|/Ohm-1	Phase(Y)/deg
1.00002e+06	-24.836	5.58564	25.4564	-167.325	2.30708	0.0179624	0.015041	0.0284931	0.0013718	1	10	0.000314611	1.23588e-05	-0.0383256	0.00861946	0.0392829	167.325
675752	1198.82	16.791	1198.94	-0.802446	3.30408	0.0175095	-2.47111e-05	0.0140267	2.75116e-06	1	12	0.000539515	4.49994e-07	0.000833989	1.16811e-05	0.000834071	0.802446
456640	51.395	10.7132	52.4997	-11.7747	4.00709	0.0175507	0.000391636	0.032533	0.00135473	1	11	0.00629791	0.000119961	0.0186469	0.00388693	0.0190477	11.7747
308574	37.2597	11.6796	39.0474	-17.4043	4.41609	0.0174129	0.000522727	0.0441605	0.00395097	1	11	0.0103945	0.000266203	0.0244374	0.00766026	0.0256099	17.4043
208525	34.1206	14.9092	37.2357	-23.6032	4.95709	0.0174545	0.000723549	0.0511925	0.00820724	1	11	0.0101337	0.000272149	0.0246092	0.0107531	0.026856	23.6032
140908	33.8855	19.9993	39.3471	-30.5492	5.36608	0.0174884	0.000918966	0.0564768	0.0145906	1	11	0.0108931	0.000276847	0.0218871	0.0129178	0.0254148	30.5492
95214.8	35.1235	27.1851	44.415	-37.7393	5.77509	0.0175001	0.000735295	0.0614872	0.0230349	1	11	0.0109592	0.000246745	0.0178049	0.0137807	0.0225149	37.7393
64345.7	37.2418	37.3415	52.7384	-45.0766	6.18408	0.0175141	0.000882231	0.0662383	0.0332077	1	11	0.0109899	0.000208385	0.0133899	0.0134257	0.0189615	45.0766
43476.5	40.3162	51.8418	65.6732	-52.1286	6.72509	0.0175252	0.000794588	0.0706131	0.0440016	1	11	0.0100891	0.000153626	0.00934767	0.01202	0.0152269	52.1286
29384.8	44.3793	72.2143	84.761	-58.4272	7.13409	0.0175177	0.000662382	0.0750024	0.0544414	1	11	0.010523	0.000124149	0.00617715	0.0100515	0.0117979	58.4272
19853.5	50.2823	101.121	112.932	-63.5611	7.5431	0.0175172	0.000698557	0.0792762	0.0635604	1	11	0.0101234	8.96416e-05	0.00394257	0.00792873	0.00885487	63.5611
13418	58.3811	142.157	153.678	-67.6731	7.82008	0.0175297	0.000827032	0.083438	0.0713965	1	11	0.00958214	6.23519e-05	0.00247199	0.00601926	0.00650709	67.6731
9082.03	69.7774	199.586	211.432	-70.7299	8.11734	0.0175289	0.000931267	0.0878024	0.0782394	1	11	0.0091293	4.31784e-05	0.00156089	0.00446466	0.00472965	70.7299
6140.96	85.3526	281.848	294.488	-73.152	8.71064	0.0175913	0.000905161	0.0919537	0.0842293	1	11	0.00987545	3.35343e-05	0.000984196	0.00324997	0.00339572	73.152
4141.32	108.932	398.703	413.317	-74.7188	9.65069	0.0175748	0.000137685	0.0963898	0.0896944	1	12	0.010125	2.44969e-05	0.000637661	0.00233391	0.00241945	74.7188
2797.31	144.712	566.432	584.625	-75.6687	10.1169	0.0175687	6.20996e-05	0.100446	0.0942913	1	12	0.00922554	1.57803e-05	0.000423398	0.00165727	0.0017105	75.6687
1890.6	191.056	797.266	819.839	-76.5239	10.8017	0.0175772	0.000100647	0.105588	0.0998541	1	12	0.00997392	1.21657e-05	0.000284252	0.00118617	0.00121975	76.5239
1287.12	269.593	1122.86	1154.77	-76.4991	11.2682	0.0175773	-1.02964e-05	0.110123	0.104121	1	12	0.00977412	8.46415e-06	0.000202172	0.000842046	0.000865976	76.4991
863.066	375.112	1555.12	1599.73	-76.4387	11.7352	0.0175721	5.05369e-05	0.11858	0.11206	1	12	0.00967731	6.04936e-06	0.000146578	0.000607679	0.000625107	76.4387
583.692	511.486	2192.74	2251.61	-76.8698	12.2012	0.017579	0.000122429	0.124351	0.117934	1	12	0.00962515	4.27479e-06	0.00010089	0.000432516	0.000444127	76.8698
394.117	752.162	3090.48	3180.69	-76.3213	12.9202	0.0175868	3.45952e-05	0.130668	0.123361	1	13	0.00979079	3.07819e-06	7.43478e-05	0.00030548	0.000314397	76.3213
266.449	1099.35	4331.38	4468.71	-75.7584	13.3836	0.0175916	8.71995e-06	0.137905	0.129559	1	13	0.00968975	2.16835e-06	5.50519e-05	0.000216901	0.000223778	75.7584
180.058	1647.67	6069.92	6289.57	-74.8131	13.8487	0.0175886	1.18681e-05	0.145622	0.135628	1	13	0.0096316	1.53136e-06	4.16513e-05	0.000153441	0.000158993	74.8131
121.595	2360.53	8480.1	8802.51	-74.4449	14.3091	0.0175893	1.2394e-05	0.154349	0.143249	1	13	0.00961322	1.0921e-06	3.04646e-05	0.000109443	0.000113604	74.4449
82.2368	3620.14	11465.7	12023.6	-72.4772	14.7643	0.0175942	2.72576e-06	0.168793	0.153491	1	13	0.00960229	7.9862e-07	2.50412e-05	7.93104e-05	8.31697e-05	72.4772
55.5152	5594.65	15715.3	16681.5	-70.4043	15.2269	0.0175903	6.88847e-06	0.182425	0.161906	1	13	0.0096007	5.75531e-07	2.0105e-05	5.64748e-05	5.99467e-05	70.4043
37.5601	8904.92	21490.7	23262.6	-67.4928	15.9838	0.0175928	7.28242e-07	0.197171	0.168278	1	14	0.00961033	4.13123e-07	1.64556e-05	3.97131e-05	4.29874e-05	67.4928
25.3653	14035.8	28313.4	31601.4	-63.631	16.4428	0.0175895	4.34892e-07	0.22161	0.177893	1	14	0.00960211	3.03851e-07	1.40547e-05	2.83517e-05	3.16441e-05	63.631
17.1327	21962.9	36334.7	42456.7	-58.8487	16.8579	0.0175891	2.62458e-06	0.255667	0.18725	1	14	0.00958599	2.25782e-07	1.21842e-05	2.01571e-05	2.35534e-05	58.8487
11.5912	33758.3	43878.7	55362.1	-52.427	17.2673	0.0175841	1.38348e-06	0.312922	0.196571	1	14	0.00958888	1.73203e-07	1.10142e-05	1.43162e-05	1.80629e-05	52.427
7.82815	48787.3	49057.2	69186.8	-45.158	17.8493	0.0175885	-7.52859e-07	0.414437	0.208361	1	14	0.00959126	1.38628e-07	1.0192e-05	1.02484e-05	1.44536e-05	45.158
5.29302	65860	50255.4	82844.1	-37.3459	18.6857	0.017591	4.61007e-07	0.598321	0.220179	1	14	0.0095905	1.15766e-07	9.59619e-06	7.3225e-06	1.20709e-05	37.3459
3.57551	82552	47810.7	95397.6	-30.0777	19.9003	0.0175957	9.87406e-07	0.931014	0.233847	1	14	0.00958854	1.00511e-07	9.07095e-06	5.25352e-06	1.04824e-05	30.0777
2.41723	96189.3	41599	104799	-23.387	21.6775	0.0175935	1.69655e-06	1.58277	0.249384	1	14	0.00959006	9.15089e-08	8.75813e-06	3.78763e-06	9.54206e-06	23.387
1.63271	106517	34078.8	111836	-17.7414	24.2884	0.0175905	1.54966e-06	2.8604	0.265603	1	14	0.00959067	8.57564e-08	8.5164e-06	2.72471e-06	8.94165e-06	17.7414
1.10206	113885	25863.8	116785	-12.7951	28.1374	0.0175893	2.15437e-06	5.58372	0.273863	1	14	0.00959115	8.21266e-08	8.35012e-06	1.89635e-06	8.56275e-06	12.7951
0.745609	118907	19483.4	120492	-9.30548	33.8092	0.0175902	2.2206e-06	10.9558	0.286454	1	14	0.00959207	7.96074e-08	8.19008e-06	1.34198e-06	8.29929e-06	9.30548
0.503902	121834	13037.5	122529	-6.10802	42.1849	0.0175933	2.71299e-06	24.2258	0.274277	1	14	0.00959011	7.82679e-08	8.11498e-06	8.6839e-07	8.16131e-06	6.10802
0.340103	122952	8856.6	123270	-4.12009	54.5783	0.0175866	2.81647e-06	52.8376	0.272748	1	14	0.00959124	7.78067e-08	8.0913e-06	5.82843e-07	8.11227e-06	4.12009
0.230213	123092	4926.46	123191	-2.2919	72.8716	0.0175907	3.49691e-06	140.332	0.224423	1	14	0.00959177	7.7861e-08	8.11099e-06	3.24622e-07	8.11748e-06	2.2919
0.155473	123012	1969.67	123028	-0.917342	99.943	0.0175907	4.37791e-06	519.725	0.133215	1	14	0.00959046	7.79538e-08	8.12722e-06	1.30133e-07	8.12826e-06	0.917342
0.105049	123143	-505.508	123144	0.235201	139.993	0.0175943	5.81035e-06	-2997.09	-0.0505047	1	14	0.00959224	7.78947e-08	8.12053e-06	-3.33353e-08	8.1206e-06	-0.235201
0.0710227	122209	-1072.89	122214	0.502992	199.213	0.0175975	5.8832e-06	-2088.66	-0.160966	1	14	0.00959183	7.84838e-08	8.18204e-06	-7.18309e-08	8.18236e-06	-0.502992
0.0479883	123422	-1919.05	123437	0.890799	286.843	0.0175983	6.28759e-06	-1728.22	-0.417714	1	14	0.00959042	7.76948e-08	8.10032e-06	-1.25949e-07	8.1013e-06	-0.890799
0.0324439	126760	-1987.51	126775	0.898288	416.443	0.0175988	6.97081e-06	-2468.18	-0.606634	1	14	0.00959181	7.56599e-08	7.887e-06	-1.23663e-07	7.88797e-06	-0.898288
0.0219206	132597	-2582.79	132622	1.11589	608.245	0.0175962	9.32071e-06	-2811.12	-1.06616	1	14	0.00959272	7.23311e-08	7.53877e-06	-1.46843e-07	7.5402e-06	-1.11589
0.0148076	143551	-4017.83	143608	1.60322	892.164	0.0175972	1.28315e-05	-2675.12	-2.09397	1	14	0.00959053	6.67829e-08	6.96069e-06	-1.94821e-07	6.96342e-06	-1.60322
0.0100006	153500	-1425.72	153507	0.532154	1312.54	0.0175933	1.82275e-05	-11162.4	-0.962883	1	14	0.00959223	6.24874e-08	6.51409e-06	-6.05036e-08	6.51437e-06	-0.532154