File: Python Codes/Alyssa_Old_Files/Functions.py/EIS Results/EIS_2023_07_08_Temp_In_Out_GB/0708_01_EIS_0.5MTFSI_Blocking_OutsideGB_24hr_60C_overnight_C03.mpt
EC-Lab ASCII FILE
Nb header lines : 62

Potentio Electrochemical Impedance Spectroscopy

Run on channel : 3 (SN 35515)
User :
CE vs. WE compliance from -10 V to 10 V
Electrode connection : standard
Ewe ctrl range : min = -5.00 V, max = 5.00 V
Safety Limits :
	Do not start on E overload
Acquisition started on : 07/10/2023 07:23:23
Technique started on : 07/10/2023 07:23:25
Saved on :
	File : 0708_01_EIS_0.5MTFSI_Blocking_OutsideGB_24hr_60C_overnight_C03.mpr
	Directory : C:\Users\CESL\Documents\EC-Lab\Data\PhD\Leifer\Results\Zn Ion GPE\2023\0708\
	Host : 10.110.196.171
Device : VSP (SN 1724172417241724)
Address : USB
EC-Lab for windows v11.16 (software)
Internet server v11.16 (firmware)
Command interpretor v11.16 (firmware)
Electrode material : Au/Pd
Initial state :
Electrolyte : NaCl (0.2M)
Comments : Fe(CN)63-/Fe(CN)64- 5.10-3 M
Reference electrode : SCE Saturated Calomel Electrode (0.241 V)
Electrode surface area : 0.001 cm²
Characteristic mass : 0.001 g
Equivalent Weight : 0.000 g/eq.
Density : 0.000 g/cm3
Cycle Definition : Charge/Discharge alternance
Mode                Single sine
E (V)               0.0000
vs.                 Eoc
tE (h:m:s)          0:00:0.0000
record              0
dI                  0.000
unit dI             mA
dt (s)              0.000
fi                  1.000
unit fi             MHz
ff                  10.000
unit ff             mHz
Nd                  6
Points              per decade
spacing             Logarithmic
Va (mV)             10.0
pw                  0.10
Na                  2
corr                1
E range min (V)     -5.000
E range max (V)     5.000
I Range             Auto
Bandwidth           5
nc cycles           0
goto Ns'            0
nr cycles           0
inc. cycle          0

freq/Hz	Re(Z)/Ohm	-Im(Z)/Ohm	|Z|/Ohm	Phase(Z)/deg	time/s	<Ewe>/V	<I>/mA	Cs/µF	Cp/µF	cycle number	I Range	|Ewe|/V	|I|/A	Re(Y)/Ohm-1	Im(Y)/Ohm-1	|Y|/Ohm-1	Phase(Y)/deg
1.00002e+06	-58.4769	13.0089	59.9064	-167.458	2.63808	0.0277897	-0.00130994	0.0122341	0.000576905	1	11	0.000243891	4.07119e-06	-0.0162944	0.00362487	0.0166927	167.458
675752	32.31	-10.5834	33.9992	18.1366	3.0471	0.0271176	-0.00111265	-0.022254	-0.00215635	1	11	0.00118982	3.49956e-05	0.0279511	-0.00915559	0.0294124	-18.1366
456640	19.0517	-3.93451	19.4537	11.6686	4.33808	0.027129	0.00205331	-0.0885839	-0.00362353	1	10	0.00660083	0.00033931	0.0503418	-0.0103965	0.0514041	-11.6686
308574	15.9087	-2.07054	16.0429	7.41544	4.7471	0.026848	0.0021652	-0.249102	-0.00414934	1	10	0.0106507	0.00066389	0.0618116	-0.00804486	0.0623329	-7.41544
208525	14.7559	-1.19389	14.8041	4.62569	5.28808	0.0268476	0.00364774	-0.639288	-0.00415777	1	10	0.0101519	0.000685745	0.0673287	-0.00544753	0.0675487	-4.62569
140908	14.3037	-0.636679	14.3179	2.54864	5.82908	0.0268529	0.002913	-1.77404	-0.00350791	1	10	0.0101293	0.000707459	0.0697738	-0.00310573	0.0698429	-2.54864
95214.8	14.1304	-0.227554	14.1322	0.922605	6.2381	0.0268485	0.00288316	-7.34565	-0.00190449	1	10	0.0108461	0.000767469	0.070751	-0.00113937	0.0707602	-0.922605
64345.7	14.0403	0.107429	14.0407	-0.438389	6.64708	0.0268679	0.00312745	23.024	0.00134786	1	10	0.0106128	0.000755863	0.0712195	0.000544935	0.0712216	0.438389
43476.5	14.0288	0.44803	14.0359	-1.8292	7.05608	0.0268522	0.00372234	8.17067	0.00832511	1	10	0.0104035	0.000741207	0.0712094	0.00227418	0.0712457	1.8292
29384.8	14.0653	0.828095	14.0897	-3.3694	7.4651	0.0268604	0.00332886	6.54061	0.0225932	1	10	0.0102992	0.000730975	0.0708513	0.00417137	0.070974	3.3694
19853.5	14.1118	1.2793	14.1696	-5.17999	7.87409	0.0268507	0.00212977	6.26628	0.0510786	1	10	0.0100531	0.000709481	0.0702852	0.00637171	0.0705734	5.17999
13418	14.1959	1.93107	14.3267	-7.74641	8.1511	0.0268703	0.00313491	6.14235	0.111594	1	10	0.010694	0.000746438	0.0691629	0.00940824	0.0697999	7.74641
9082.03	14.3375	2.80081	14.6085	-11.0535	8.58833	0.0268721	0.00333818	6.25682	0.229991	1	10	0.0101277	0.000693275	0.0671834	0.0131242	0.0684533	11.0535
6140.96	14.5511	4.01866	15.0958	-15.4389	8.99164	0.026858	0.00136891	6.44915	0.457038	1	10	0.0102491	0.000678934	0.0638531	0.0176347	0.0662435	15.4389
4141.32	14.8853	5.7687	15.964	-21.1836	9.45769	0.0268959	0.00459508	6.66198	0.869913	1	10	0.0102869	0.000644383	0.0584082	0.0226358	0.062641	21.1836
2797.31	15.4065	8.20072	17.4532	-28.0258	9.92394	0.0268918	0.00408598	6.93788	1.53173	1	10	0.01028	0.000589002	0.0505774	0.0269217	0.0572961	28.0258
1890.6	16.1674	11.5621	19.8763	-35.5703	10.3877	0.0269002	0.00462865	7.28088	2.46368	1	10	0.0102339	0.000514878	0.0409232	0.0292661	0.0503112	35.5703
1287.12	17.3547	16.1651	23.717	-42.9675	10.8542	0.0268928	0.00400765	7.64934	3.55355	1	10	0.0102106	0.00043052	0.030853	0.0287382	0.0421639	42.9675
863.066	19.2487	22.7801	29.8236	-49.8028	11.3212	0.0268913	0.0039946	8.09508	4.72294	1	10	0.0101813	0.000341386	0.0216413	0.0256116	0.0335305	49.8028
583.692	22.0027	31.6627	38.5571	-55.2042	12.0402	0.0268718	0.000184809	8.61167	5.80732	1	11	0.010357	0.000268613	0.0148002	0.021298	0.0259356	55.2042
394.117	26.1881	43.7675	51.004	-59.106	12.5072	0.0268622	0.000195064	9.22663	6.7942	1	11	0.0102519	0.000201002	0.0100669	0.0168245	0.0196063	59.106
266.449	32.3014	59.9966	68.1394	-61.7025	12.9707	0.0268625	4.17829e-05	9.95585	7.71855	1	11	0.0102059	0.00014978	0.00695705	0.012922	0.0146758	61.7025
180.058	41.2193	81.5519	91.377	-63.1863	13.4357	0.0268614	0.000197299	10.8386	8.63315	1	11	0.0101656	0.000111249	0.0049366	0.00976699	0.0109437	63.1863
121.595	54.0594	109.99	122.557	-63.8262	13.8961	0.0268693	8.63479e-05	11.9001	9.58472	1	11	0.0101506	8.2823e-05	0.00359909	0.00732278	0.00815945	63.8262
82.2368	71.8577	147.194	163.798	-63.9792	14.3513	0.0268682	-1.95672e-05	13.1481	10.6177	1	11	0.0101411	6.19124e-05	0.0026783	0.00548625	0.0061051	63.9792
55.5152	96.5562	196.388	218.841	-63.8185	15.0639	0.0268649	-7.44127e-05	14.598	11.7562	1	12	0.0101846	4.65386e-05	0.00201615	0.0041007	0.00456953	63.8185
37.5601	130.724	258.118	289.333	-63.14	15.5557	0.0268699	1.61685e-05	16.4163	13.0652	1	12	0.0101597	3.51142e-05	0.00156156	0.00308335	0.00345623	63.14
25.3653	177.855	338.121	382.045	-62.2552	16.0149	0.0268634	-3.68966e-06	18.557	14.5353	1	12	0.0101468	2.65592e-05	0.00121853	0.00231656	0.00261749	62.2552
17.1327	238.414	440.527	500.904	-61.5777	16.4278	0.02686	-0.000398478	21.0874	16.3101	1	12	0.0101371	2.02377e-05	0.000950215	0.00175575	0.00199639	61.5777
11.5912	313.295	570.971	651.277	-61.2461	16.8373	0.0268538	-6.49415e-05	24.0478	18.483	1	12	0.0101468	1.55798e-05	0.000738622	0.00134612	0.00153544	61.2461
7.82815	418.456	732.65	843.731	-60.267	17.4193	0.0268644	-4.07579e-05	27.7501	20.9242	1	12	0.0101407	1.20189e-05	0.000587816	0.00102917	0.00118521	60.267
5.29302	542.454	947.073	1091.42	-60.1973	18.6827	0.0268655	2.65563e-06	31.7492	23.9064	1	13	0.0101462	9.29628e-06	0.000455383	0.000795056	0.000916235	60.1973
3.57551	698.918	1226.32	1411.51	-60.3199	19.8973	0.0268748	6.62014e-06	36.2975	27.3981	1	13	0.0101455	7.18771e-06	0.0003508	0.000615514	0.000708462	60.3199
2.41723	902.029	1588.4	1826.65	-60.4083	21.6736	0.0268699	7.19886e-07	41.4517	31.3436	1	13	0.0101439	5.55326e-06	0.000270339	0.000476044	0.00054745	60.4083
1.63271	1144.92	2067.35	2363.21	-61.0217	24.2845	0.0268721	-1.57678e-07	47.1518	36.0844	1	13	0.0101472	4.29382e-06	0.000205008	0.000370175	0.000423153	61.0217
1.10206	1461.66	2709.1	3078.26	-61.6515	29.9974	0.0268712	-6.46031e-07	53.3076	41.2885	1	14	0.0101491	3.29701e-06	0.000154254	0.0002859	0.000324859	61.6515
0.745609	1856.88	3564.13	4018.84	-62.4809	35.6682	0.0268699	1.10685e-06	59.8901	47.1044	1	14	0.0101481	2.52512e-06	0.00011497	0.000220675	0.000248828	62.4809
0.503902	2366.11	4727.17	5286.27	-63.4105	44.044	0.0268697	-1.93478e-06	66.8147	53.429	1	14	0.0101469	1.91948e-06	8.46712e-05	0.000169162	0.000189169	63.4105
0.340103	3000.67	6276.15	6956.58	-64.4472	56.4375	0.0268744	4.0466e-07	74.5618	60.6892	1	14	0.010145	1.45834e-06	6.20048e-05	0.000129688	0.000143749	64.4472
0.230213	3818.53	8396.08	9223.63	-65.544	74.7307	0.0268739	1.18846e-06	82.3406	68.2282	1	14	0.0101447	1.09986e-06	4.48841e-05	9.86899e-05	0.000108417	65.544
0.155473	4848.71	11291.4	12288.4	-66.7605	101.802	0.0268724	9.57511e-07	90.6609	76.5459	1	14	0.0101451	8.2558e-07	3.21096e-05	7.47748e-05	8.13776e-05	66.7605
0.105049	6232.5	15290.6	16512	-67.824	141.851	0.0268714	4.8765e-07	99.0838	84.9673	1	14	0.0101441	6.14348e-07	2.28592e-05	5.60821e-05	6.05619e-05	67.824
0.0710227	8010.79	20819	22307	-68.9541	201.072	0.026873	3.40101e-07	107.637	93.756	1	14	0.0101439	4.54738e-07	1.60987e-05	4.18385e-05	4.48289e-05	68.9541
0.0479883	10443.4	28417.1	30275.3	-69.8214	288.703	0.0268706	3.36062e-07	116.709	102.822	1	14	0.010144	3.35057e-07	1.13937e-05	3.10028e-05	3.30302e-05	69.8214
0.0324439	13699.2	39062.5	41395	-70.6743	418.302	0.0268698	4.32424e-07	125.582	111.828	1	14	0.0101461	2.45105e-07	7.99463e-06	2.27963e-05	2.41575e-05	70.6743
0.0219206	18267.7	53370	56409.8	-71.1048	610.103	0.0268695	3.58938e-07	136.041	121.774	1	14	0.0101457	1.79857e-07	5.74082e-06	1.67721e-05	1.77274e-05	71.1048
0.0148076	24683.7	73392.2	77431.9	-71.4109	894.021	0.0268729	4.02982e-07	146.449	131.566	1	14	0.0101445	1.31012e-07	4.1169e-06	1.22408e-05	1.29146e-05	71.4109
0.0100006	33650	100989	106447	-71.5716	1314.39	0.0268814	5.07088e-07	157.587	141.839	1	14	0.0101445	9.53004e-08	2.96972e-06	8.91257e-06	9.39431e-06	71.5716